Date and Time:                Thu Oct 30 08:43:31.639 2025
Software Version:             4.30.30000.0
Temperature (C):              -90
Model:                        DU971P_UVB
Data Type:                    Counts
Acquisition Mode:             Single Scan
Trigger Mode:                 Internal
Exposure Time (secs):         0.5
Readout Mode:                 Full Vertical Binning
Horizontal binning:           2
Extended Dynamic Range:       off
Horizontally flipped:         false
Vertical Shift Speed (usecs): 9.68
Pixel Readout Rate (MHz):     3
Baseline Clamp:               ON
Clock Amplitude:              Normal
Output Amplifier:             Conventional
Serial Number:                20367
Pre-Amplifier Gain:           4x
Spurious Noise Filter Mode:   No Filter
Photon counted:               false
Data Averaging Filter Mode:   No Filter
SR193i:
Serial Number:                SR-2646
Wavelength (nm):              690
Grating Groove Density (l/mm):300
Grating Blaze:                500nm
Input Side Slit Width (um):   1000



478.32681	271
478.84332	312
479.35983	347
479.87631	325
480.39282	325
480.9093	343
481.42575	341
481.94223	304
482.45868	330
482.97513	323
483.49158	319
484.00803	360
484.52444	401
485.04086	447
485.55728	498
486.07367	536
486.59006	572
487.10645	622
487.62283	687
488.13919	713
488.65555	729
489.17191	786
489.68826	851
490.20459	883
490.72092	934
491.23724	991
491.75354	1006
492.26984	1081
492.78613	1188
493.30243	1291
493.8187	1166
494.33496	1269
494.85123	1283
495.36746	1412
495.8837	1515
496.39993	1487
496.91617	1606
497.43237	1591
497.94858	1788
498.46478	1890
498.98096	1954
499.49713	2065
500.01331	2193
500.52945	2263
501.04562	2346
501.56174	2579
502.07788	2635
502.59399	2938
503.11011	3334
503.62622	3571
504.1423	3913
504.65839	4340
505.17447	4905
505.69052	5399
506.20657	5956
506.72263	6655
507.23865	7423
507.75467	8255
508.27069	9277
508.78668	10097
509.30267	11111
509.81866	12033
510.33463	13269
510.85059	14066
511.36655	15135
511.88248	15838
512.39844	17075
512.91437	17440
513.43024	18149
513.94617	18588
514.46204	19008
514.97791	19968
515.49377	19831
516.00964	20059
516.52551	19995
517.04132	19496
517.55719	19544
518.073	19447
518.58881	19026
519.10461	18765
519.62036	18422
520.13617	17620
520.65192	17193
521.16766	16426
521.68341	15664
522.1991	14989
522.71484	14333
523.23053	13308
523.74622	12619
524.2619	11251
524.77759	10421
525.29327	9343
525.8089	8608
526.32452	7493
526.84015	6450
527.35577	5848
527.8714	5144
528.38696	4443
528.90259	4016
529.41815	3524
529.93372	3221
530.44922	2946
530.96478	2782
531.48029	2586
531.99579	2430
532.51129	2320
533.02679	2435
533.5423	2238
534.05774	2248
534.57318	2304
535.08862	2195
535.60406	2176
536.11945	2074
536.63489	2069
537.15027	2105
537.66565	2080
538.18097	1965
538.69635	1942
539.21167	1926
539.72699	1815
540.24231	1910
540.75763	1756
541.27289	1787
541.78821	1691
542.30347	1714
542.81873	1684
543.33392	1598
543.84918	1584
544.36438	1534
544.87958	1554
545.39478	1543
545.90991	1503
546.42511	1488
546.94025	1418
547.45538	1486
547.97052	1433
548.4856	1349
549.00073	1369
549.51581	1384
550.03088	1366
550.5459	1369
551.06097	1323
551.57599	1263
552.091	1316
552.60602	1258
553.12097	1185
553.63593	1257
554.15094	1243
554.66583	1227
555.18079	1209
555.69568	1266
556.21063	1227
556.72552	1211
557.24036	1234
557.75525	1197
558.27008	1250
558.78491	1163
559.29974	1130
559.81458	1150
560.32935	1172
560.84412	1094
561.35889	1176
561.87366	1136
562.38837	1166
562.90308	1075
563.41779	1091
563.9325	1122
564.44714	1144
564.96179	1055
565.47644	1138
565.99109	1059
566.50574	1052
567.02032	1046
567.53491	1036
568.0495	1065
568.56403	1003
569.07861	1041
569.59314	1042
570.1076	992
570.62213	996
571.1366	947
571.65106	1011
572.16553	953
572.67999	953
573.1944	986
573.7088	934
574.22321	1002
574.73755	966
575.25195	937
575.7663	955
576.28058	920
576.79492	974
577.3092	936
577.82349	918
578.33777	954
578.85205	830
579.36627	834
579.88049	883
580.39471	918
580.90887	850
581.42303	899
581.93719	846
582.45135	821
582.96545	834
583.47955	842
583.99365	861
584.50775	797
585.02179	830
585.53583	823
586.04987	783
586.5639	818
587.07788	848
587.59186	788
588.10583	807
588.61975	772
589.13373	802
589.64758	751
590.1615	742
590.67542	771
591.18927	825
591.70306	765
592.21692	748
592.73071	733
593.24451	739
593.7583	693
594.27209	738
594.78583	766
595.29956	726
595.81323	754
596.32697	741
596.84064	750
597.35425	710
597.86792	736
598.38153	696
598.89514	665
599.40875	702
599.9223	703
600.43585	687
600.9494	684
601.46289	687
601.97638	679
602.48987	662
603.00336	676
603.51678	607
604.03021	661
604.54364	644
605.05701	646
605.57043	643
606.08374	658
606.59711	602
607.11041	647
607.62372	642
608.13702	584
608.65027	645
609.16351	623
609.67676	625
610.19	591
610.70319	623
611.21637	614
611.72949	614
612.24268	618
612.75574	581
613.26886	548
613.78192	612
614.29504	587
614.80804	553
615.32111	587
615.83411	621
616.34711	578
616.86005	600
617.37299	565
617.88593	565
618.39886	527
618.91174	590
619.42462	589
619.9375	552
620.45032	552
620.96313	535
621.47595	574
621.98871	529
622.50146	534
623.01422	532
623.52692	536
624.03967	558
624.55231	580
625.065	542
625.57764	536
626.09027	560
626.60284	554
627.11542	506
627.62799	505
628.14056	531
628.65308	527
629.16559	509
629.6781	498
630.19055	488
630.703	480
631.21539	502
631.72784	514
632.24017	523
632.75256	516
633.26489	487
633.77722	465
634.28955	508
634.80182	478
635.31409	480
635.82635	470
636.33856	469
636.85077	490
637.36292	472
637.87512	483
638.38721	488
638.89935	476
639.41144	486
639.92352	477
640.43561	457
640.94763	478
641.45966	447
641.97162	444
642.48358	453
642.99554	439
643.50751	449
644.01941	450
644.53131	445
645.04315	445
645.55499	421
646.06683	443
646.57861	478
647.09045	423
647.60217	414
648.11395	417
648.62567	395
649.13733	441
649.64905	424
650.16064	433
650.6723	422
651.1839	431
651.6955	421
652.20709	406
652.71863	423
653.23016	436
653.74164	426
654.25311	434
654.76459	390
655.276	416
655.78741	413
656.29883	411
656.81018	394
657.32153	412
657.83289	402
658.34418	399
658.85547	423
659.3667	422
659.87793	407
660.38916	393
660.90033	399
661.4115	439
661.92267	385
662.43378	419
662.94489	402
663.45593	403
663.96698	400
664.47803	385
664.98907	442
665.50006	390
666.01099	377
666.52191	402
667.03284	381
667.54376	380
668.05463	387
668.56549	401
669.07629	392
669.5871	394
670.0979	397
670.60864	389
671.11938	378
671.63007	390
672.14075	411
672.65143	393
673.16205	395
673.67267	388
674.18329	351
674.69385	359
675.20435	366
675.7149	393
676.2254	384
676.73584	390
677.24628	363
677.75671	374
678.26715	345
678.77753	364
679.28784	372
679.79822	373
680.30847	367
680.81879	344
681.32904	361
681.83923	389
682.34949	355
682.85968	359
683.36981	378
683.87994	355
684.39008	369
684.90015	340
685.41022	361
685.92023	369
686.43024	359
686.94025	355
687.4502	357
687.96014	370
688.47003	372
688.97992	373
689.48981	342
689.99963	360
690.50946	330
691.01923	335
691.52899	349
692.03876	378
692.54846	358
693.05817	357
693.56781	351
694.07745	353
694.58704	352
695.09662	349
695.6062	348
696.11572	357
696.62524	360
697.1347	369
697.64417	348
698.15363	358
698.66302	353
699.17242	331
699.68176	371
700.1911	345
700.70044	322
701.20972	340
701.71893	305
702.22815	349
702.73737	324
703.24652	341
703.75568	337
704.26483	362
704.77393	331
705.28302	340
705.79205	345
706.30103	345
706.81006	323
707.31903	320
707.82794	326
708.33685	354
708.84576	347
709.35461	341
709.86346	347
710.37225	358
710.88104	343
711.38977	345
711.8985	340
712.40723	336
712.91589	344
713.42456	340
713.93317	331
714.44177	332
714.95032	308
715.45886	311
715.96735	339
716.47583	325
716.98431	326
717.49274	317
718.00116	335
718.50952	320
719.01788	329
719.52618	314
720.03448	346
720.54272	348
721.05096	331
721.5592	327
722.06738	322
722.57556	335
723.08368	317
723.59174	338
724.09985	341
724.60791	323
725.11591	340
725.6239	342
726.13184	341
726.63977	326
727.14771	304
727.65558	335
728.16339	336
728.67126	346
729.17902	314
729.68683	314
730.19452	324
730.70227	325
731.2099	326
731.71759	334
732.22522	313
732.73279	347
733.24036	295
733.74792	340
734.25543	341
734.76288	310
735.27032	338
735.77777	335
736.28516	311
736.79254	343
737.29987	340
737.80719	345
738.31445	324
738.82172	325
739.32892	317
739.83612	316
740.34326	344
740.8504	323
741.35748	335
741.86456	330
742.37164	336
742.87866	341
743.38562	340
743.89258	319
744.39954	350
744.90643	340
745.41327	318
745.9201	332
746.42694	324
746.93372	315
747.44049	306
747.9472	318
748.45386	285
748.96057	314
749.46716	323
749.97375	321
750.48035	317
750.98688	329
751.49341	300
751.99988	326
752.50635	337
753.01276	308
753.51917	337
754.02551	313
754.53186	311
755.03815	334
755.54443	335
756.05066	308
756.55688	329
757.06305	335
757.56921	326
758.07532	346
758.58142	324
759.08746	322
759.59351	300
760.09949	331
760.60547	329
761.11139	304
761.61725	328
762.12317	317
762.62897	306
763.13483	308
763.64056	304
764.1463	301
764.65204	328
765.15771	324
765.66339	297
766.16901	329
766.67462	332
767.18018	341
767.68567	310
768.19116	339
768.69666	318
769.20209	324
769.70746	333
770.21283	330
770.7182	328
771.22351	324
771.72876	325
772.23401	342
772.73926	324
773.24445	318
773.74957	307
774.2547	308
774.75977	306
775.26483	323
775.76984	302
776.27484	309
776.77979	329
777.28473	309
777.78961	307
778.29449	306
778.79932	315
779.30408	311
779.80884	317
780.3136	323
780.8183	323
781.32294	315
781.82758	308
782.33215	313
782.83673	325
783.34131	297
783.84576	333
784.35028	316
784.85468	312
785.35907	331
785.86346	325
786.3678	317
786.87213	338
787.3764	309
787.88062	317
788.38483	312
788.88898	313
789.39313	305
789.89722	305
790.40131	314
790.90533	337
791.40936	316
791.91333	304
792.4173	302
792.9212	300
793.42505	336
793.92889	302
794.43268	337
794.93646	325
795.44019	325
795.94391	316
796.44757	316
796.95123	309
797.45483	320
797.95837	294
798.46191	325
798.96539	321
799.46887	317
799.97235	303
800.47571	308
800.97906	301
801.48242	294
801.98572	320
802.48895	302
802.99219	297
803.49536	321
803.99854	320
804.50165	319
805.00476	295
805.50781	312
806.01086	319
806.51379	287
807.01678	299
807.51971	326
808.02258	313
808.52539	344
809.02826	302
809.53101	304
810.03375	298
810.53644	323
811.03912	329
811.54175	298
812.04437	319
812.54694	305
813.04944	312
813.55194	336
814.05444	323
814.55682	315
815.05927	330
815.56158	294
816.0639	316
816.56622	321
817.06842	326
817.57068	312
818.07281	308
818.57495	310
819.07709	288
819.57916	330
820.08118	311
820.58319	317
821.08514	314
821.5871	301
822.08899	302
822.59082	299
823.09265	320
823.59442	322
824.09619	322
824.5979	315
825.09955	309
825.6012	317
826.10278	293
826.60437	293
827.1059	319
827.60736	305
828.10883	295
828.61023	302
829.11163	312
829.61298	315
830.11432	306
830.61554	304
831.11682	331
831.61798	281
832.11914	306
832.6203	315
833.1214	326
833.62244	318
834.12347	328
834.62445	306
835.12537	307
835.62628	322
836.12714	326
836.62799	302
837.12878	307
837.62952	306
838.13025	306
838.63092	297
839.13153	319
839.63214	338
840.13275	306
840.63324	318
841.13373	314
841.63422	323
842.13464	321
842.63501	319
843.13538	302
843.63568	327
844.13593	313
844.63617	301
845.13635	311
845.63647	314
846.1366	329
846.63672	305
847.13672	323
847.63672	320
848.13672	297
848.6366	337
849.13647	324
849.63635	321
850.13617	317
850.63593	295
851.13568	310
851.63538	319
852.13501	323
852.63464	330
853.13422	295
853.63373	316
854.13324	331
854.63275	318
855.13214	301
855.63153	324
856.13086	336
856.63019	316
857.12946	310
857.62866	317
858.12787	310
858.62701	324
859.12616	305
859.62524	314
860.12427	306
860.62323	293
861.12219	309
861.62109	307
862.12	327
862.61884	328
863.11761	297
863.61639	313
864.11511	316
864.61377	314
865.11243	309
865.61102	307
866.10962	304
866.60809	296
867.10663	307
867.60504	316
868.10345	306
868.60181	309
869.10016	316
869.59839	310
870.09668	337
870.59485	315
871.09302	328
871.59113	312
872.08923	331
872.58728	318
873.08527	321
873.58325	329
874.08118	320
874.57904	335
875.0769	308
875.57465	311
876.07245	331
876.57013	323
877.06781	324
877.56549	333
878.06305	322
878.56061	322
879.05817	338
879.5556	331
880.05304	315
880.55042	315
881.04779	335
881.5451	317
882.04236	336
882.53961	327
883.0368	334
883.53394	327
884.03107	308
884.52808	312
885.02515	310
