Date and Time:                Sat Oct 18 10:11:27.505 2025
Software Version:             4.30.30000.0
Temperature (C):              -90
Model:                        DU971P_UVB
Data Type:                    Counts
Acquisition Mode:             Single Scan
Trigger Mode:                 Internal
Exposure Time (secs):         30
Readout Mode:                 Full Vertical Binning
Horizontal binning:           2
Extended Dynamic Range:       off
Horizontally flipped:         false
Vertical Shift Speed (usecs): 9.68
Pixel Readout Rate (MHz):     3
Baseline Clamp:               ON
Clock Amplitude:              Normal
Output Amplifier:             Conventional
Serial Number:                20367
Pre-Amplifier Gain:           4x
Spurious Noise Filter Mode:   No Filter
Photon counted:               false
Data Averaging Filter Mode:   No Filter
SR193i:
Serial Number:                SR-2646
Wavelength (nm):              690
Grating Groove Density (l/mm):300
Grating Blaze:                500nm
Input Side Slit Width (um):   1000



478.32681	308
478.84332	356
479.35983	353
479.87631	355
480.39282	351
480.9093	367
481.42575	370
481.94223	359
482.45868	363
482.97513	356
483.49158	398
484.00803	370
484.52444	392
485.04086	396
485.55728	426
486.07367	422
486.59006	438
487.10645	471
487.62283	490
488.13919	455
488.65555	501
489.17191	523
489.68826	539
490.20459	509
490.72092	551
491.23724	594
491.75354	582
492.26984	599
492.78613	662
493.30243	671
493.8187	650
494.33496	661
494.85123	700
495.36746	746
495.8837	747
496.39993	725
496.91617	740
497.43237	795
497.94858	754
498.46478	780
498.98096	839
499.49713	801
500.01331	801
500.52945	780
501.04562	799
501.56174	813
502.07788	852
502.59399	811
503.11011	852
503.62622	733
504.1423	858
504.65839	828
505.17447	839
505.69052	836
506.20657	785
506.72263	844
507.23865	791
507.75467	769
508.27069	798
508.78668	794
509.30267	832
509.81866	802
510.33463	786
510.85059	776
511.36655	803
511.88248	778
512.39844	797
512.91437	827
513.43024	784
513.94617	777
514.46204	793
514.97791	814
515.49377	832
516.00964	778
516.52551	793
517.04132	757
517.55719	806
518.073	833
518.58881	806
519.10461	794
519.62036	815
520.13617	798
520.65192	759
521.16766	805
521.68341	747
522.1991	771
522.71484	790
523.23053	786
523.74622	763
524.2619	776
524.77759	779
525.29327	737
525.8089	735
526.32452	776
526.84015	763
527.35577	785
527.8714	735
528.38696	731
528.90259	785
529.41815	730
529.93372	751
530.44922	814
530.96478	794
531.48029	740
531.99579	775
532.51129	751
533.02679	776
533.5423	731
534.05774	777
534.57318	732
535.08862	809
535.60406	746
536.11945	694
536.63489	732
537.15027	746
537.66565	697
538.18097	761
538.69635	741
539.21167	697
539.72699	706
540.24231	711
540.75763	783
541.27289	751
541.78821	757
542.30347	735
542.81873	774
543.33392	789
543.84918	732
544.36438	777
544.87958	803
545.39478	789
545.90991	813
546.42511	775
546.94025	755
547.45538	799
547.97052	802
548.4856	770
549.00073	779
549.51581	759
550.03088	804
550.5459	815
551.06097	802
551.57599	825
552.091	901
552.60602	864
553.12097	873
553.63593	822
554.15094	891
554.66583	909
555.18079	854
555.69568	907
556.21063	900
556.72552	922
557.24036	936
557.75525	885
558.27008	1017
558.78491	978
559.29974	981
559.81458	1013
560.32935	975
560.84412	965
561.35889	1002
561.87366	1005
562.38837	1021
562.90308	1019
563.41779	1062
563.9325	1042
564.44714	1043
564.96179	1045
565.47644	1091
565.99109	1136
566.50574	1117
567.02032	1186
567.53491	1230
568.0495	1202
568.56403	1146
569.07861	1160
569.59314	1177
570.1076	1245
570.62213	1234
571.1366	1226
571.65106	1278
572.16553	1308
572.67999	1360
573.1944	1258
573.7088	1286
574.22321	1356
574.73755	1319
575.25195	1335
575.7663	1360
576.28058	1420
576.79492	1464
577.3092	1466
577.82349	1479
578.33777	1462
578.85205	1482
579.36627	1396
579.88049	1506
580.39471	1538
580.90887	1556
581.42303	1608
581.93719	1605
582.45135	1636
582.96545	1653
583.47955	1687
583.99365	1726
584.50775	1719
585.02179	1644
585.53583	1650
586.04987	1711
586.5639	1707
587.07788	1818
587.59186	1763
588.10583	1828
588.61975	1715
589.13373	1870
589.64758	1824
590.1615	1871
590.67542	1765
591.18927	1831
591.70306	1919
592.21692	1886
592.73071	1888
593.24451	1900
593.7583	1880
594.27209	1938
594.78583	1915
595.29956	1946
595.81323	1929
596.32697	1924
596.84064	1966
597.35425	1983
597.86792	1917
598.38153	1953
598.89514	1976
599.40875	2046
599.9223	2025
600.43585	2040
600.9494	2060
601.46289	1999
601.97638	2054
602.48987	2095
603.00336	2128
603.51678	2088
604.03021	2114
604.54364	2007
605.05701	2088
605.57043	2064
606.08374	2013
606.59711	2029
607.11041	2017
607.62372	2136
608.13702	2031
608.65027	2108
609.16351	2034
609.67676	2013
610.19	2190
610.70319	2167
611.21637	2011
611.72949	2014
612.24268	2087
612.75574	2102
613.26886	2013
613.78192	2083
614.29504	2113
614.80804	2015
615.32111	2084
615.83411	2059
616.34711	2060
616.86005	2109
617.37299	2090
617.88593	2117
618.39886	1985
618.91174	2136
619.42462	2038
619.9375	2014
620.45032	2028
620.96313	2087
621.47595	1939
621.98871	2119
622.50146	2070
623.01422	2004
623.52692	2085
624.03967	2009
624.55231	2010
625.065	2032
625.57764	1947
626.09027	1976
626.60284	1956
627.11542	2112
627.62799	1898
628.14056	1933
628.65308	1959
629.16559	1940
629.6781	1931
630.19055	2005
630.703	1991
631.21539	2018
631.72784	1977
632.24017	1967
632.75256	1959
633.26489	1875
633.77722	1917
634.28955	1883
634.80182	1875
635.31409	1875
635.82635	1877
636.33856	1852
636.85077	1869
637.36292	1840
637.87512	1862
638.38721	1896
638.89935	1803
639.41144	1818
639.92352	1822
640.43561	1845
640.94763	1835
641.45966	1777
641.97162	1859
642.48358	1763
642.99554	1777
643.50751	1763
644.01941	1810
644.53131	1745
645.04315	1690
645.55499	1755
646.06683	1757
646.57861	1777
647.09045	1726
647.60217	1730
648.11395	1712
648.62567	1764
649.13733	1646
649.64905	1767
650.16064	1596
650.6723	1710
651.1839	1666
651.6955	1623
652.20709	1607
652.71863	1618
653.23016	1600
653.74164	1600
654.25311	1588
654.76459	1579
655.276	1604
655.78741	1559
656.29883	1474
656.81018	1623
657.32153	1598
657.83289	1566
658.34418	1571
658.85547	1494
659.3667	1558
659.87793	1551
660.38916	1608
660.90033	1471
661.4115	1471
661.92267	1490
662.43378	1550
662.94489	1455
663.45593	1442
663.96698	1524
664.47803	1511
664.98907	1547
665.50006	1467
666.01099	1463
666.52191	1395
667.03284	1481
667.54376	1444
668.05463	1486
668.56549	1393
669.07629	1433
669.5871	1359
670.0979	1343
670.60864	1355
671.11938	1319
671.63007	1315
672.14075	1378
672.65143	1354
673.16205	1305
673.67267	1289
674.18329	1272
674.69385	1319
675.20435	1311
675.7149	1273
676.2254	1378
676.73584	1391
677.24628	1335
677.75671	1277
678.26715	1270
678.77753	1259
679.28784	1263
679.79822	1250
680.30847	1248
680.81879	1266
681.32904	1265
681.83923	1203
682.34949	1273
682.85968	1219
683.36981	1153
683.87994	1246
684.39008	1223
684.90015	1156
685.41022	1192
685.92023	1224
686.43024	1186
686.94025	1173
687.4502	1126
687.96014	1184
688.47003	1120
688.97992	1083
689.48981	1119
689.99963	1111
690.50946	1126
691.01923	1124
691.52899	1090
692.03876	1100
692.54846	1012
693.05817	1080
693.56781	1007
694.07745	1055
694.58704	1066
695.09662	1080
695.6062	1074
696.11572	1065
696.62524	1033
697.1347	1019
697.64417	1070
698.15363	1010
698.66302	1051
699.17242	973
699.68176	971
700.1911	1017
700.70044	979
701.20972	968
701.71893	946
702.22815	930
702.73737	953
703.24652	973
703.75568	952
704.26483	914
704.77393	944
705.28302	973
705.79205	926
706.30103	929
706.81006	882
707.31903	916
707.82794	891
708.33685	911
708.84576	911
709.35461	936
709.86346	870
710.37225	872
710.88104	887
711.38977	838
711.8985	847
712.40723	874
712.91589	829
713.42456	864
713.93317	806
714.44177	850
714.95032	842
715.45886	857
715.96735	865
716.47583	817
716.98431	801
717.49274	783
718.00116	857
718.50952	809
719.01788	792
719.52618	769
720.03448	825
720.54272	771
721.05096	769
721.5592	739
722.06738	812
722.57556	739
723.08368	757
723.59174	746
724.09985	727
724.60791	750
725.11591	751
725.6239	715
726.13184	763
726.63977	780
727.14771	776
727.65558	754
728.16339	784
728.67126	741
729.17902	708
729.68683	728
730.19452	739
730.70227	696
731.2099	687
731.71759	675
732.22522	723
732.73279	643
733.24036	691
733.74792	724
734.25543	700
734.76288	716
735.27032	695
735.77777	697
736.28516	684
736.79254	729
737.29987	698
737.80719	664
738.31445	624
738.82172	680
739.32892	649
739.83612	620
740.34326	616
740.8504	663
741.35748	650
741.86456	627
742.37164	625
742.87866	639
743.38562	624
743.89258	634
744.39954	596
744.90643	616
745.41327	642
745.9201	602
746.42694	604
746.93372	626
747.44049	627
747.9472	586
748.45386	588
748.96057	593
749.46716	584
749.97375	544
750.48035	619
750.98688	549
751.49341	593
751.99988	589
752.50635	603
753.01276	595
753.51917	573
754.02551	550
754.53186	533
755.03815	580
755.54443	568
756.05066	584
756.55688	536
757.06305	529
757.56921	550
758.07532	576
758.58142	517
759.08746	525
759.59351	543
760.09949	564
760.60547	516
761.11139	525
761.61725	558
762.12317	525
762.62897	540
763.13483	528
763.64056	543
764.1463	495
764.65204	504
765.15771	525
765.66339	534
766.16901	507
766.67462	543
767.18018	504
767.68567	501
768.19116	531
768.69666	496
769.20209	522
769.70746	491
770.21283	486
770.7182	488
771.22351	511
771.72876	499
772.23401	507
772.73926	519
773.24445	484
773.74957	482
774.2547	487
774.75977	493
775.26483	499
775.76984	508
776.27484	478
776.77979	446
777.28473	460
777.78961	502
778.29449	438
778.79932	471
779.30408	474
779.80884	448
780.3136	461
780.8183	459
781.32294	445
781.82758	455
782.33215	435
782.83673	448
783.34131	471
783.84576	449
784.35028	435
784.85468	437
785.35907	452
785.86346	435
786.3678	449
786.87213	441
787.3764	469
787.88062	412
788.38483	462
788.88898	447
789.39313	473
789.89722	437
790.40131	426
790.90533	452
791.40936	423
791.91333	433
792.4173	445
792.9212	431
793.42505	427
793.92889	402
794.43268	415
794.93646	405
795.44019	419
795.94391	410
796.44757	407
796.95123	395
797.45483	434
797.95837	412
798.46191	420
798.96539	406
799.46887	439
799.97235	450
800.47571	427
800.97906	419
801.48242	406
801.98572	370
802.48895	439
802.99219	419
803.49536	410
803.99854	402
804.50165	408
805.00476	395
805.50781	403
806.01086	382
806.51379	405
807.01678	410
807.51971	392
808.02258	401
808.52539	395
809.02826	400
809.53101	404
810.03375	414
810.53644	376
811.03912	413
811.54175	383
812.04437	399
812.54694	420
813.04944	388
813.55194	390
814.05444	404
814.55682	404
815.05927	378
815.56158	399
816.0639	394
816.56622	405
817.06842	343
817.57068	380
818.07281	384
818.57495	373
819.07709	385
819.57916	375
820.08118	385
820.58319	347
821.08514	370
821.5871	403
822.08899	374
822.59082	406
823.09265	385
823.59442	397
824.09619	398
824.5979	376
825.09955	378
825.6012	399
826.10278	407
826.60437	399
827.1059	392
827.60736	366
828.10883	378
828.61023	375
829.11163	369
829.61298	382
830.11432	353
830.61554	374
831.11682	382
831.61798	397
832.11914	373
832.6203	371
833.1214	410
833.62244	354
834.12347	386
834.62445	405
835.12537	379
835.62628	364
836.12714	379
836.62799	350
837.12878	373
837.62952	355
838.13025	401
838.63092	405
839.13153	401
839.63214	382
840.13275	376
840.63324	385
841.13373	368
841.63422	364
842.13464	387
842.63501	355
843.13538	371
843.63568	370
844.13593	388
844.63617	367
845.13635	361
845.63647	383
846.1366	376
846.63672	379
847.13672	362
847.63672	365
848.13672	388
848.6366	370
849.13647	374
849.63635	400
850.13617	390
850.63593	362
851.13568	364
851.63538	363
852.13501	377
852.63464	360
853.13422	379
853.63373	365
854.13324	376
854.63275	375
855.13214	353
855.63153	366
856.13086	365
856.63019	390
857.12946	384
857.62866	371
858.12787	376
858.62701	376
859.12616	380
859.62524	368
860.12427	392
860.62323	360
861.12219	353
861.62109	389
862.12	354
862.61884	396
863.11761	362
863.61639	360
864.11511	373
864.61377	363
865.11243	347
865.61102	365
866.10962	367
866.60809	368
867.10663	364
867.60504	385
868.10345	379
868.60181	378
869.10016	365
869.59839	407
870.09668	429
870.59485	506
871.09302	606
871.59113	684
872.08923	792
872.58728	832
873.08527	845
873.58325	858
874.08118	914
874.57904	883
875.0769	895
875.57465	912
876.07245	865
876.57013	915
877.06781	933
877.56549	904
878.06305	947
878.56061	958
879.05817	1093
879.5556	2033
880.05304	885
880.55042	952
881.04779	924
881.5451	981
882.04236	967
882.53961	991
883.0368	933
883.53394	976
884.03107	965
884.52808	918
885.02515	962
