Date and Time:                Sat Oct 18 10:12:49.420 2025
Software Version:             4.30.30000.0
Temperature (C):              -90
Model:                        DU971P_UVB
Data Type:                    Counts
Acquisition Mode:             Single Scan
Trigger Mode:                 Internal
Exposure Time (secs):         30
Readout Mode:                 Full Vertical Binning
Horizontal binning:           2
Extended Dynamic Range:       off
Horizontally flipped:         false
Vertical Shift Speed (usecs): 9.68
Pixel Readout Rate (MHz):     3
Baseline Clamp:               ON
Clock Amplitude:              Normal
Output Amplifier:             Conventional
Serial Number:                20367
Pre-Amplifier Gain:           4x
Spurious Noise Filter Mode:   No Filter
Photon counted:               false
Data Averaging Filter Mode:   No Filter
SR193i:
Serial Number:                SR-2646
Wavelength (nm):              690
Grating Groove Density (l/mm):300
Grating Blaze:                500nm
Input Side Slit Width (um):   1000



478.32681	328
478.84332	353
479.35983	368
479.87631	386
480.39282	374
480.9093	370
481.42575	378
481.94223	363
482.45868	371
482.97513	374
483.49158	354
484.00803	378
484.52444	407
485.04086	418
485.55728	446
486.07367	451
486.59006	471
487.10645	492
487.62283	501
488.13919	477
488.65555	500
489.17191	499
489.68826	548
490.20459	563
490.72092	564
491.23724	545
491.75354	601
492.26984	634
492.78613	651
493.30243	621
493.8187	669
494.33496	667
494.85123	664
495.36746	655
495.8837	690
496.39993	672
496.91617	723
497.43237	731
497.94858	728
498.46478	790
498.98096	731
499.49713	774
500.01331	825
500.52945	801
501.04562	804
501.56174	779
502.07788	843
502.59399	797
503.11011	762
503.62622	777
504.1423	815
504.65839	811
505.17447	787
505.69052	823
506.20657	826
506.72263	797
507.23865	788
507.75467	808
508.27069	807
508.78668	805
509.30267	839
509.81866	792
510.33463	816
510.85059	812
511.36655	817
511.88248	779
512.39844	817
512.91437	815
513.43024	789
513.94617	777
514.46204	814
514.97791	789
515.49377	783
516.00964	818
516.52551	744
517.04132	809
517.55719	808
518.073	793
518.58881	727
519.10461	728
519.62036	769
520.13617	835
520.65192	761
521.16766	770
521.68341	761
522.1991	758
522.71484	757
523.23053	799
523.74622	740
524.2619	769
524.77759	763
525.29327	745
525.8089	762
526.32452	764
526.84015	748
527.35577	728
527.8714	756
528.38696	725
528.90259	740
529.41815	775
529.93372	744
530.44922	699
530.96478	643
531.48029	747
531.99579	766
532.51129	807
533.02679	737
533.5423	749
534.05774	825
534.57318	736
535.08862	738
535.60406	744
536.11945	741
536.63489	751
537.15027	745
537.66565	725
538.18097	734
538.69635	761
539.21167	718
539.72699	773
540.24231	693
540.75763	704
541.27289	771
541.78821	769
542.30347	717
542.81873	725
543.33392	767
543.84918	788
544.36438	713
544.87958	790
545.39478	793
545.90991	764
546.42511	734
546.94025	809
547.45538	775
547.97052	791
548.4856	766
549.00073	792
549.51581	783
550.03088	786
550.5459	824
551.06097	788
551.57599	800
552.091	840
552.60602	817
553.12097	861
553.63593	827
554.15094	888
554.66583	836
555.18079	857
555.69568	927
556.21063	911
556.72552	874
557.24036	963
557.75525	948
558.27008	928
558.78491	944
559.29974	902
559.81458	978
560.32935	960
560.84412	1010
561.35889	1052
561.87366	1029
562.38837	1026
562.90308	1042
563.41779	988
563.9325	1100
564.44714	1084
564.96179	1103
565.47644	1111
565.99109	1093
566.50574	1139
567.02032	1095
567.53491	1125
568.0495	1184
568.56403	1189
569.07861	1159
569.59314	1180
570.1076	1282
570.62213	1251
571.1366	1260
571.65106	1305
572.16553	1279
572.67999	1302
573.1944	1306
573.7088	1349
574.22321	1386
574.73755	1304
575.25195	1369
575.7663	1394
576.28058	1418
576.79492	1412
577.3092	1476
577.82349	1415
578.33777	1439
578.85205	1420
579.36627	1432
579.88049	1516
580.39471	1597
580.90887	1490
581.42303	1546
581.93719	1608
582.45135	1612
582.96545	1622
583.47955	1713
583.99365	1711
584.50775	1721
585.02179	1690
585.53583	1610
586.04987	1704
586.5639	1724
587.07788	1789
587.59186	1798
588.10583	1737
588.61975	1748
589.13373	1795
589.64758	1768
590.1615	1801
590.67542	1832
591.18927	1877
591.70306	1847
592.21692	1839
592.73071	1958
593.24451	1891
593.7583	1893
594.27209	1842
594.78583	1925
595.29956	1904
595.81323	2012
596.32697	2005
596.84064	2050
597.35425	2035
597.86792	2016
598.38153	1984
598.89514	2015
599.40875	2003
599.9223	2028
600.43585	2070
600.9494	1954
601.46289	2022
601.97638	1942
602.48987	2073
603.00336	2073
603.51678	2024
604.03021	2195
604.54364	2061
605.05701	2181
605.57043	2029
606.08374	2025
606.59711	2103
607.11041	2044
607.62372	2075
608.13702	2103
608.65027	2094
609.16351	2056
609.67676	2137
610.19	2009
610.70319	2060
611.21637	2046
611.72949	2097
612.24268	2166
612.75574	2192
613.26886	2007
613.78192	2042
614.29504	2167
614.80804	2051
615.32111	2098
615.83411	2059
616.34711	2021
616.86005	2124
617.37299	2044
617.88593	2181
618.39886	2005
618.91174	2102
619.42462	2009
619.9375	2064
620.45032	2032
620.96313	2071
621.47595	2019
621.98871	1995
622.50146	2133
623.01422	2041
623.52692	1974
624.03967	1996
624.55231	2028
625.065	1980
625.57764	2012
626.09027	2095
626.60284	2027
627.11542	2047
627.62799	1996
628.14056	2102
628.65308	1962
629.16559	1895
629.6781	2014
630.19055	1998
630.703	1931
631.21539	1944
631.72784	1927
632.24017	1985
632.75256	1954
633.26489	1894
633.77722	2010
634.28955	1854
634.80182	1961
635.31409	1857
635.82635	1963
636.33856	1883
636.85077	1857
637.36292	1859
637.87512	1958
638.38721	1802
638.89935	1885
639.41144	1789
639.92352	1836
640.43561	1840
640.94763	1871
641.45966	1848
641.97162	1849
642.48358	1800
642.99554	1761
643.50751	1797
644.01941	1722
644.53131	1791
645.04315	1741
645.55499	1842
646.06683	1843
646.57861	1779
647.09045	1748
647.60217	1741
648.11395	1710
648.62567	1800
649.13733	1662
649.64905	1719
650.16064	1685
650.6723	1684
651.1839	1671
651.6955	1675
652.20709	1681
652.71863	1637
653.23016	1648
653.74164	1557
654.25311	1640
654.76459	1546
655.276	1562
655.78741	1625
656.29883	1610
656.81018	1596
657.32153	1550
657.83289	1510
658.34418	1523
658.85547	1515
659.3667	1620
659.87793	1642
660.38916	1492
660.90033	1611
661.4115	1565
661.92267	1549
662.43378	1561
662.94489	1525
663.45593	1480
663.96698	1492
664.47803	1429
664.98907	1456
665.50006	1437
666.01099	1545
666.52191	1495
667.03284	1384
667.54376	1446
668.05463	1447
668.56549	1361
669.07629	1455
669.5871	1364
670.0979	1426
670.60864	1423
671.11938	1438
671.63007	1430
672.14075	1402
672.65143	1436
673.16205	1373
673.67267	1332
674.18329	1348
674.69385	1329
675.20435	1306
675.7149	1340
676.2254	1257
676.73584	1259
677.24628	1267
677.75671	1300
678.26715	1299
678.77753	1301
679.28784	1260
679.79822	1259
680.30847	1266
680.81879	1286
681.32904	1208
681.83923	1234
682.34949	1211
682.85968	1224
683.36981	1243
683.87994	1167
684.39008	1148
684.90015	1209
685.41022	1220
685.92023	1190
686.43024	1184
686.94025	1184
687.4502	1146
687.96014	1162
688.47003	1129
688.97992	1166
689.48981	1112
689.99963	1172
690.50946	1102
691.01923	1111
691.52899	1099
692.03876	1136
692.54846	1072
693.05817	1054
693.56781	1100
694.07745	1058
694.58704	1109
695.09662	1098
695.6062	1100
696.11572	1114
696.62524	1103
697.1347	1029
697.64417	1079
698.15363	995
698.66302	978
699.17242	1024
699.68176	1015
700.1911	1003
700.70044	1000
701.20972	1079
701.71893	1030
702.22815	1010
702.73737	952
703.24652	938
703.75568	986
704.26483	932
704.77393	4744
705.28302	10346
705.79205	854
706.30103	945
706.81006	950
707.31903	890
707.82794	891
708.33685	872
708.84576	892
709.35461	947
709.86346	941
710.37225	879
710.88104	893
711.38977	900
711.8985	873
712.40723	839
712.91589	826
713.42456	807
713.93317	890
714.44177	808
714.95032	859
715.45886	839
715.96735	828
716.47583	809
716.98431	858
717.49274	789
718.00116	813
718.50952	818
719.01788	777
719.52618	815
720.03448	843
720.54272	807
721.05096	822
721.5592	858
722.06738	791
722.57556	804
723.08368	758
723.59174	773
724.09985	788
724.60791	763
725.11591	736
725.6239	730
726.13184	770
726.63977	788
727.14771	825
727.65558	725
728.16339	733
728.67126	757
729.17902	710
729.68683	742
730.19452	692
730.70227	728
731.2099	690
731.71759	732
732.22522	718
732.73279	699
733.24036	711
733.74792	708
734.25543	693
734.76288	717
735.27032	725
735.77777	711
736.28516	731
736.79254	669
737.29987	699
737.80719	633
738.31445	668
738.82172	638
739.32892	678
739.83612	678
740.34326	635
740.8504	611
741.35748	625
741.86456	635
742.37164	626
742.87866	597
743.38562	608
743.89258	638
744.39954	643
744.90643	609
745.41327	671
745.9201	636
746.42694	607
746.93372	597
747.44049	628
747.9472	603
748.45386	594
748.96057	601
749.46716	604
749.97375	618
750.48035	572
750.98688	584
751.49341	611
751.99988	549
752.50635	567
753.01276	538
753.51917	555
754.02551	620
754.53186	575
755.03815	585
755.54443	584
756.05066	569
756.55688	623
757.06305	524
757.56921	550
758.07532	551
758.58142	578
759.08746	564
759.59351	538
760.09949	531
760.60547	549
761.11139	549
761.61725	508
762.12317	568
762.62897	547
763.13483	525
763.64056	514
764.1463	532
764.65204	512
765.15771	528
765.66339	531
766.16901	516
766.67462	547
767.18018	520
767.68567	523
768.19116	526
768.69666	506
769.20209	514
769.70746	522
770.21283	523
770.7182	517
771.22351	497
771.72876	501
772.23401	499
772.73926	510
773.24445	483
773.74957	493
774.2547	453
774.75977	509
775.26483	500
775.76984	487
776.27484	481
776.77979	489
777.28473	457
777.78961	469
778.29449	450
778.79932	452
779.30408	467
779.80884	444
780.3136	451
780.8183	452
781.32294	440
781.82758	452
782.33215	462
782.83673	474
783.34131	441
783.84576	430
784.35028	444
784.85468	432
785.35907	442
785.86346	463
786.3678	446
786.87213	448
787.3764	433
787.88062	439
788.38483	393
788.88898	454
789.39313	447
789.89722	428
790.40131	451
790.90533	437
791.40936	447
791.91333	435
792.4173	434
792.9212	420
793.42505	411
793.92889	410
794.43268	422
794.93646	436
795.44019	426
795.94391	437
796.44757	399
796.95123	425
797.45483	430
797.95837	447
798.46191	437
798.96539	424
799.46887	423
799.97235	411
800.47571	411
800.97906	444
801.48242	406
801.98572	414
802.48895	419
802.99219	374
803.49536	416
803.99854	402
804.50165	410
805.00476	410
805.50781	415
806.01086	428
806.51379	430
807.01678	383
807.51971	425
808.02258	397
808.52539	403
809.02826	403
809.53101	376
810.03375	414
810.53644	375
811.03912	399
811.54175	401
812.04437	396
812.54694	404
813.04944	417
813.55194	418
814.05444	391
814.55682	390
815.05927	388
815.56158	397
816.0639	372
816.56622	371
817.06842	407
817.57068	377
818.07281	418
818.57495	379
819.07709	400
819.57916	387
820.08118	386
820.58319	404
821.08514	388
821.5871	413
822.08899	388
822.59082	393
823.09265	386
823.59442	414
824.09619	389
824.5979	386
825.09955	363
825.6012	384
826.10278	376
826.60437	374
827.1059	387
827.60736	374
828.10883	366
828.61023	374
829.11163	395
829.61298	362
830.11432	388
830.61554	387
831.11682	389
831.61798	385
832.11914	367
832.6203	393
833.1214	365
833.62244	366
834.12347	363
834.62445	377
835.12537	392
835.62628	377
836.12714	386
836.62799	383
837.12878	393
837.62952	378
838.13025	388
838.63092	374
839.13153	367
839.63214	367
840.13275	351
840.63324	398
841.13373	393
841.63422	363
842.13464	374
842.63501	390
843.13538	377
843.63568	395
844.13593	357
844.63617	378
845.13635	393
845.63647	376
846.1366	355
846.63672	393
847.13672	356
847.63672	380
848.13672	370
848.6366	389
849.13647	359
849.63635	384
850.13617	392
850.63593	355
851.13568	376
851.63538	382
852.13501	374
852.63464	389
853.13422	356
853.63373	369
854.13324	370
854.63275	416
855.13214	372
855.63153	401
856.13086	372
856.63019	358
857.12946	394
857.62866	371
858.12787	358
858.62701	384
859.12616	392
859.62524	372
860.12427	378
860.62323	361
861.12219	361
861.62109	357
862.12	386
862.61884	376
863.11761	383
863.61639	392
864.11511	364
864.61377	402
865.11243	379
865.61102	377
866.10962	376
866.60809	392
867.10663	333
867.60504	383
868.10345	380
868.60181	376
869.10016	383
869.59839	411
870.09668	447
870.59485	492
871.09302	603
871.59113	767
872.08923	761
872.58728	883
873.08527	834
873.58325	910
874.08118	935
874.57904	921
875.0769	955
875.57465	883
876.07245	914
876.57013	937
877.06781	899
877.56549	929
878.06305	980
878.56061	963
879.05817	870
879.5556	912
880.05304	979
880.55042	978
881.04779	914
881.5451	923
882.04236	990
882.53961	1000
883.0368	968
883.53394	964
884.03107	1004
884.52808	969
885.02515	941
