Date and Time:                Thu Oct 30 09:15:07.579 2025
Software Version:             4.30.30000.0
Unstabilized Temperature (C): -88.982
Model:                        DU971P_UVB
Data Type:                    Counts
Acquisition Mode:             Single Scan
Trigger Mode:                 Internal
Exposure Time (secs):         30
Readout Mode:                 Full Vertical Binning
Horizontal binning:           2
Extended Dynamic Range:       off
Horizontally flipped:         false
Vertical Shift Speed (usecs): 9.68
Pixel Readout Rate (MHz):     3
Baseline Clamp:               ON
Clock Amplitude:              Normal
Output Amplifier:             Conventional
Serial Number:                20367
Pre-Amplifier Gain:           4x
Spurious Noise Filter Mode:   No Filter
Photon counted:               false
Data Averaging Filter Mode:   No Filter
SR193i:
Serial Number:                SR-2646
Wavelength (nm):              690
Grating Groove Density (l/mm):300
Grating Blaze:                500nm
Input Side Slit Width (um):   1000



478.32681	333
478.84332	374
479.35983	380
479.87631	384
480.39282	366
480.9093	370
481.42575	372
481.94223	358
482.45868	368
482.97513	382
483.49158	385
484.00803	362
484.52444	388
485.04086	409
485.55728	402
486.07367	415
486.59006	448
487.10645	451
487.62283	457
488.13919	483
488.65555	481
489.17191	494
489.68826	526
490.20459	528
490.72092	500
491.23724	502
491.75354	528
492.26984	522
492.78613	533
493.30243	589
493.8187	546
494.33496	589
494.85123	561
495.36746	603
495.8837	598
496.39993	618
496.91617	645
497.43237	658
497.94858	680
498.46478	663
498.98096	656
499.49713	682
500.01331	674
500.52945	656
501.04562	645
501.56174	634
502.07788	728
502.59399	626
503.11011	696
503.62622	664
504.1423	670
504.65839	695
505.17447	662
505.69052	651
506.20657	686
506.72263	677
507.23865	716
507.75467	689
508.27069	693
508.78668	702
509.30267	681
509.81866	675
510.33463	672
510.85059	687
511.36655	631
511.88248	662
512.39844	642
512.91437	614
513.43024	681
513.94617	678
514.46204	677
514.97791	667
515.49377	670
516.00964	665
516.52551	644
517.04132	693
517.55719	668
518.073	664
518.58881	617
519.10461	622
519.62036	675
520.13617	606
520.65192	654
521.16766	601
521.68341	617
522.1991	669
522.71484	635
523.23053	656
523.74622	640
524.2619	660
524.77759	597
525.29327	635
525.8089	649
526.32452	663
526.84015	577
527.35577	617
527.8714	683
528.38696	633
528.90259	670
529.41815	683
529.93372	655
530.44922	641
530.96478	636
531.48029	611
531.99579	665
532.51129	633
533.02679	625
533.5423	632
534.05774	672
534.57318	629
535.08862	626
535.60406	643
536.11945	650
536.63489	611
537.15027	606
537.66565	598
538.18097	631
538.69635	651
539.21167	658
539.72699	625
540.24231	615
540.75763	626
541.27289	616
541.78821	626
542.30347	629
542.81873	645
543.33392	611
543.84918	600
544.36438	633
544.87958	675
545.39478	657
545.90991	599
546.42511	663
546.94025	611
547.45538	634
547.97052	589
548.4856	647
549.00073	613
549.51581	624
550.03088	652
550.5459	630
551.06097	603
551.57599	643
552.091	678
552.60602	631
553.12097	630
553.63593	597
554.15094	676
554.66583	620
555.18079	681
555.69568	643
556.21063	682
556.72552	694
557.24036	639
557.75525	639
558.27008	656
558.78491	682
559.29974	692
559.81458	715
560.32935	679
560.84412	715
561.35889	695
561.87366	705
562.38837	743
562.90308	743
563.41779	704
563.9325	751
564.44714	761
564.96179	742
565.47644	776
565.99109	744
566.50574	823
567.02032	772
567.53491	805
568.0495	790
568.56403	803
569.07861	823
569.59314	844
570.1076	835
570.62213	813
571.1366	906
571.65106	863
572.16553	810
572.67999	889
573.1944	859
573.7088	896
574.22321	870
574.73755	920
575.25195	948
575.7663	911
576.28058	907
576.79492	907
577.3092	970
577.82349	953
578.33777	954
578.85205	951
579.36627	988
579.88049	987
580.39471	1016
580.90887	1019
581.42303	1035
581.93719	983
582.45135	1059
582.96545	1093
583.47955	1061
583.99365	1042
584.50775	1060
585.02179	1070
585.53583	1096
586.04987	1080
586.5639	1099
587.07788	1070
587.59186	1121
588.10583	1204
588.61975	1124
589.13373	1183
589.64758	1187
590.1615	1160
590.67542	1161
591.18927	1150
591.70306	1224
592.21692	1242
592.73071	1175
593.24451	1251
593.7583	1179
594.27209	1204
594.78583	1241
595.29956	1128
595.81323	1291
596.32697	1245
596.84064	1238
597.35425	1250
597.86792	1293
598.38153	1267
598.89514	1201
599.40875	1315
599.9223	1276
600.43585	1305
600.9494	1327
601.46289	1266
601.97638	1284
602.48987	1261
603.00336	1265
603.51678	1323
604.03021	1249
604.54364	1298
605.05701	1208
605.57043	1258
606.08374	1261
606.59711	1322
607.11041	1360
607.62372	1422
608.13702	1238
608.65027	1286
609.16351	1274
609.67676	1320
610.19	1311
610.70319	1287
611.21637	1212
611.72949	1268
612.24268	1305
612.75574	1252
613.26886	1311
613.78192	1298
614.29504	1314
614.80804	1226
615.32111	1246
615.83411	1225
616.34711	1261
616.86005	1251
617.37299	1237
617.88593	1232
618.39886	1223
618.91174	1227
619.42462	1248
619.9375	1262
620.45032	1232
620.96313	1289
621.47595	1217
621.98871	1253
622.50146	1237
623.01422	1130
623.52692	1223
624.03967	1276
624.55231	1234
625.065	1245
625.57764	1207
626.09027	1115
626.60284	1232
627.11542	1190
627.62799	1192
628.14056	1150
628.65308	1135
629.16559	1148
629.6781	1162
630.19055	1174
630.703	1130
631.21539	1084
631.72784	1059
632.24017	1129
632.75256	1181
633.26489	1128
633.77722	1109
634.28955	1063
634.80182	1098
635.31409	1050
635.82635	1025
636.33856	1048
636.85077	1118
637.36292	1127
637.87512	1103
638.38721	1012
638.89935	1007
639.41144	993
639.92352	1027
640.43561	1036
640.94763	1029
641.45966	1027
641.97162	987
642.48358	1022
642.99554	1056
643.50751	1025
644.01941	974
644.53131	1005
645.04315	1074
645.55499	963
646.06683	958
646.57861	948
647.09045	960
647.60217	969
648.11395	925
648.62567	902
649.13733	919
649.64905	896
650.16064	915
650.6723	954
651.1839	925
651.6955	878
652.20709	905
652.71863	880
653.23016	835
653.74164	898
654.25311	866
654.76459	876
655.276	851
655.78741	890
656.29883	775
656.81018	798
657.32153	812
657.83289	778
658.34418	824
658.85547	818
659.3667	793
659.87793	807
660.38916	832
660.90033	838
661.4115	802
661.92267	791
662.43378	819
662.94489	790
663.45593	785
663.96698	796
664.47803	779
664.98907	735
665.50006	772
666.01099	769
666.52191	769
667.03284	803
667.54376	810
668.05463	767
668.56549	757
669.07629	782
669.5871	751
670.0979	785
670.60864	713
671.11938	710
671.63007	757
672.14075	710
672.65143	746
673.16205	745
673.67267	677
674.18329	709
674.69385	645
675.20435	693
675.7149	747
676.2254	687
676.73584	672
677.24628	699
677.75671	674
678.26715	650
678.77753	694
679.28784	655
679.79822	673
680.30847	653
680.81879	663
681.32904	672
681.83923	679
682.34949	672
682.85968	640
683.36981	633
683.87994	680
684.39008	593
684.90015	656
685.41022	627
685.92023	623
686.43024	611
686.94025	607
687.4502	643
687.96014	662
688.47003	603
688.97992	601
689.48981	598
689.99963	603
690.50946	582
691.01923	584
691.52899	586
692.03876	567
692.54846	574
693.05817	612
693.56781	574
694.07745	550
694.58704	607
695.09662	565
695.6062	588
696.11572	585
696.62524	598
697.1347	536
697.64417	543
698.15363	592
698.66302	600
699.17242	513
699.68176	533
700.1911	531
700.70044	538
701.20972	568
701.71893	1628
702.22815	538
702.73737	493
703.24652	515
703.75568	516
704.26483	560
704.77393	522
705.28302	552
705.79205	500
706.30103	483
706.81006	534
707.31903	534
707.82794	521
708.33685	516
708.84576	494
709.35461	480
709.86346	514
710.37225	477
710.88104	488
711.38977	464
711.8985	520
712.40723	483
712.91589	480
713.42456	508
713.93317	480
714.44177	456
714.95032	486
715.45886	484
715.96735	474
716.47583	464
716.98431	488
717.49274	466
718.00116	468
718.50952	487
719.01788	476
719.52618	443
720.03448	448
720.54272	453
721.05096	455
721.5592	431
722.06738	414
722.57556	467
723.08368	466
723.59174	421
724.09985	473
724.60791	462
725.11591	471
725.6239	429
726.13184	405
726.63977	423
727.14771	454
727.65558	466
728.16339	426
728.67126	459
729.17902	418
729.68683	431
730.19452	437
730.70227	425
731.2099	419
731.71759	428
732.22522	441
732.73279	413
733.24036	395
733.74792	417
734.25543	446
734.76288	426
735.27032	415
735.77777	409
736.28516	424
736.79254	397
737.29987	432
737.80719	422
738.31445	411
738.82172	419
739.32892	429
739.83612	420
740.34326	435
740.8504	439
741.35748	423
741.86456	388
742.37164	399
742.87866	416
743.38562	391
743.89258	406
744.39954	402
744.90643	425
745.41327	396
745.9201	392
746.42694	396
746.93372	378
747.44049	383
747.9472	404
748.45386	401
748.96057	359
749.46716	394
749.97375	378
750.48035	399
750.98688	401
751.49341	399
751.99988	422
752.50635	393
753.01276	355
753.51917	375
754.02551	403
754.53186	384
755.03815	372
755.54443	361
756.05066	395
756.55688	382
757.06305	382
757.56921	369
758.07532	400
758.58142	354
759.08746	380
759.59351	375
760.09949	363
760.60547	369
761.11139	351
761.61725	357
762.12317	390
762.62897	386
763.13483	396
763.64056	374
764.1463	376
764.65204	360
765.15771	377
765.66339	374
766.16901	370
766.67462	349
767.18018	362
767.68567	371
768.19116	358
768.69666	353
769.20209	401
769.70746	364
770.21283	369
770.7182	368
771.22351	392
771.72876	378
772.23401	361
772.73926	349
773.24445	362
773.74957	331
774.2547	379
774.75977	347
775.26483	349
775.76984	342
776.27484	357
776.77979	344
777.28473	338
777.78961	363
778.29449	356
778.79932	356
779.30408	354
779.80884	336
780.3136	339
780.8183	343
781.32294	355
781.82758	342
782.33215	342
782.83673	356
783.34131	373
783.84576	363
784.35028	358
784.85468	346
785.35907	343
785.86346	357
786.3678	326
786.87213	335
787.3764	364
787.88062	372
788.38483	350
788.88898	348
789.39313	348
789.89722	351
790.40131	368
790.90533	359
791.40936	347
791.91333	352
792.4173	355
792.9212	340
793.42505	335
793.92889	346
794.43268	326
794.93646	333
795.44019	361
795.94391	360
796.44757	345
796.95123	357
797.45483	329
797.95837	368
798.46191	354
798.96539	350
799.46887	337
799.97235	350
800.47571	341
800.97906	300
801.48242	328
801.98572	349
802.48895	332
802.99219	342
803.49536	350
803.99854	362
804.50165	348
805.00476	338
805.50781	330
806.01086	329
806.51379	342
807.01678	350
807.51971	337
808.02258	339
808.52539	305
809.02826	335
809.53101	351
810.03375	349
810.53644	337
811.03912	325
811.54175	317
812.04437	366
812.54694	345
813.04944	350
813.55194	358
814.05444	342
814.55682	333
815.05927	342
815.56158	347
816.0639	347
816.56622	341
817.06842	325
817.57068	339
818.07281	369
818.57495	322
819.07709	367
819.57916	337
820.08118	340
820.58319	327
821.08514	322
821.5871	337
822.08899	333
822.59082	330
823.09265	330
823.59442	327
824.09619	332
824.5979	341
825.09955	362
825.6012	336
826.10278	339
826.60437	321
827.1059	343
827.60736	333
828.10883	334
828.61023	314
829.11163	326
829.61298	321
830.11432	337
830.61554	334
831.11682	335
831.61798	326
832.11914	326
832.6203	340
833.1214	350
833.62244	341
834.12347	312
834.62445	316
835.12537	324
835.62628	314
836.12714	329
836.62799	324
837.12878	352
837.62952	344
838.13025	314
838.63092	326
839.13153	342
839.63214	359
840.13275	331
840.63324	351
841.13373	336
841.63422	337
842.13464	343
842.63501	340
843.13538	332
843.63568	342
844.13593	322
844.63617	323
845.13635	335
845.63647	337
846.1366	335
846.63672	355
847.13672	341
847.63672	356
848.13672	364
848.6366	325
849.13647	333
849.63635	345
850.13617	320
850.63593	332
851.13568	350
851.63538	331
852.13501	328
852.63464	344
853.13422	326
853.63373	336
854.13324	323
854.63275	370
855.13214	335
855.63153	356
856.13086	343
856.63019	321
857.12946	354
857.62866	333
858.12787	326
858.62701	324
859.12616	337
859.62524	345
860.12427	339
860.62323	346
861.12219	343
861.62109	320
862.12	318
862.61884	325
863.11761	326
863.61639	324
864.11511	345
864.61377	351
865.11243	342
865.61102	336
866.10962	322
866.60809	334
867.10663	362
867.60504	364
868.10345	341
868.60181	344
869.10016	353
869.59839	369
870.09668	411
870.59485	449
871.09302	599
871.59113	677
872.08923	728
872.58728	763
873.08527	807
873.58325	843
874.08118	852
874.57904	863
875.0769	909
875.57465	897
876.07245	912
876.57013	939
877.06781	911
877.56549	940
878.06305	883
878.56061	899
879.05817	955
879.5556	917
880.05304	928
880.55042	970
881.04779	967
881.5451	943
882.04236	976
882.53961	983
883.0368	947
883.53394	952
884.03107	1001
884.52808	1056
885.02515	900
