Date and Time:                Fri Oct 17 08:52:24.407 2025
Software Version:             4.30.30000.0
Temperature (C):              -90
Model:                        DU971P_UVB
Data Type:                    Counts
Acquisition Mode:             Single Scan
Trigger Mode:                 Internal
Exposure Time (secs):         30
Readout Mode:                 Full Vertical Binning
Horizontal binning:           2
Extended Dynamic Range:       off
Horizontally flipped:         false
Vertical Shift Speed (usecs): 9.68
Pixel Readout Rate (MHz):     3
Baseline Clamp:               ON
Clock Amplitude:              Normal
Output Amplifier:             Conventional
Serial Number:                20367
Pre-Amplifier Gain:           4x
Spurious Noise Filter Mode:   No Filter
Photon counted:               false
Data Averaging Filter Mode:   No Filter
SR193i:
Serial Number:                SR-2646
Wavelength (nm):              690
Grating Groove Density (l/mm):300
Grating Blaze:                500nm
Input Side Slit Width (um):   1000



478.32681	356
478.84332	363
479.35983	368
479.87631	3627
480.39282	17616
480.9093	10063
481.42575	523
481.94223	382
482.45868	376
482.97513	375
483.49158	375
484.00803	368
484.52444	421
485.04086	394
485.55728	406
486.07367	418
486.59006	439
487.10645	444
487.62283	466
488.13919	473
488.65555	458
489.17191	458
489.68826	462
490.20459	507
490.72092	491
491.23724	517
491.75354	509
492.26984	551
492.78613	538
493.30243	557
493.8187	609
494.33496	556
494.85123	580
495.36746	550
495.8837	592
496.39993	595
496.91617	651
497.43237	584
497.94858	654
498.46478	616
498.98096	616
499.49713	627
500.01331	641
500.52945	647
501.04562	651
501.56174	625
502.07788	674
502.59399	624
503.11011	614
503.62622	631
504.1423	640
504.65839	640
505.17447	678
505.69052	657
506.20657	668
506.72263	628
507.23865	670
507.75467	699
508.27069	626
508.78668	675
509.30267	652
509.81866	651
510.33463	643
510.85059	653
511.36655	641
511.88248	643
512.39844	634
512.91437	627
513.43024	670
513.94617	605
514.46204	625
514.97791	641
515.49377	600
516.00964	575
516.52551	609
517.04132	577
517.55719	578
518.073	581
518.58881	559
519.10461	600
519.62036	618
520.13617	622
520.65192	595
521.16766	589
521.68341	620
522.1991	627
522.71484	615
523.23053	610
523.74622	588
524.2619	591
524.77759	609
525.29327	607
525.8089	611
526.32452	585
526.84015	593
527.35577	552
527.8714	606
528.38696	582
528.90259	565
529.41815	562
529.93372	596
530.44922	545
530.96478	555
531.48029	537
531.99579	582
532.51129	588
533.02679	616
533.5423	614
534.05774	612
534.57318	588
535.08862	583
535.60406	613
536.11945	584
536.63489	595
537.15027	632
537.66565	591
538.18097	610
538.69635	567
539.21167	607
539.72699	571
540.24231	588
540.75763	590
541.27289	570
541.78821	571
542.30347	575
542.81873	608
543.33392	602
543.84918	595
544.36438	593
544.87958	632
545.39478	632
545.90991	626
546.42511	593
546.94025	630
547.45538	650
547.97052	594
548.4856	696
549.00073	652
549.51581	687
550.03088	635
550.5459	657
551.06097	664
551.57599	680
552.091	678
552.60602	687
553.12097	676
553.63593	704
554.15094	701
554.66583	691
555.18079	759
555.69568	776
556.21063	724
556.72552	756
557.24036	729
557.75525	791
558.27008	768
558.78491	802
559.29974	793
559.81458	811
560.32935	805
560.84412	801
561.35889	817
561.87366	891
562.38837	876
562.90308	869
563.41779	958
563.9325	955
564.44714	897
564.96179	937
565.47644	903
565.99109	977
566.50574	984
567.02032	920
567.53491	1004
568.0495	940
568.56403	1046
569.07861	989
569.59314	1062
570.1076	981
570.62213	1028
571.1366	1057
571.65106	1027
572.16553	1094
572.67999	1102
573.1944	1102
573.7088	1093
574.22321	1133
574.73755	1199
575.25195	1212
575.7663	1164
576.28058	1240
576.79492	1262
577.3092	1231
577.82349	1182
578.33777	1302
578.85205	1269
579.36627	1299
579.88049	1312
580.39471	1310
580.90887	1353
581.42303	1352
581.93719	1305
582.45135	1352
582.96545	1401
583.47955	1357
583.99365	1454
584.50775	1458
585.02179	1415
585.53583	1493
586.04987	1387
586.5639	1490
587.07788	1498
587.59186	1565
588.10583	1540
588.61975	1536
589.13373	1595
589.64758	1565
590.1615	1530
590.67542	1536
591.18927	1555
591.70306	1554
592.21692	1584
592.73071	1560
593.24451	1593
593.7583	1607
594.27209	1583
594.78583	1612
595.29956	1620
595.81323	1634
596.32697	1672
596.84064	1616
597.35425	1697
597.86792	1649
598.38153	1665
598.89514	1620
599.40875	1580
599.9223	1694
600.43585	1692
600.9494	1662
601.46289	1693
601.97638	1661
602.48987	1620
603.00336	1668
603.51678	1729
604.03021	1661
604.54364	1690
605.05701	1742
605.57043	1637
606.08374	1648
606.59711	1785
607.11041	1700
607.62372	1684
608.13702	1731
608.65027	1735
609.16351	1736
609.67676	1735
610.19	1717
610.70319	1677
611.21637	1726
611.72949	1680
612.24268	1650
612.75574	1572
613.26886	1728
613.78192	1720
614.29504	1729
614.80804	1699
615.32111	1666
615.83411	1667
616.34711	1666
616.86005	1670
617.37299	1591
617.88593	1639
618.39886	1633
618.91174	1659
619.42462	1688
619.9375	1625
620.45032	1580
620.96313	1525
621.47595	1638
621.98871	1702
622.50146	1553
623.01422	1622
623.52692	1579
624.03967	1568
624.55231	1557
625.065	1595
625.57764	1496
626.09027	1547
626.60284	1540
627.11542	1560
627.62799	1503
628.14056	1496
628.65308	1467
629.16559	1565
629.6781	1524
630.19055	1481
630.703	1422
631.21539	1461
631.72784	1451
632.24017	1473
632.75256	1563
633.26489	1417
633.77722	1488
634.28955	1449
634.80182	1444
635.31409	1333
635.82635	1417
636.33856	1401
636.85077	1350
637.36292	1367
637.87512	1413
638.38721	1317
638.89935	1368
639.41144	1372
639.92352	1303
640.43561	1338
640.94763	1297
641.45966	1274
641.97162	1360
642.48358	1289
642.99554	1258
643.50751	1266
644.01941	1310
644.53131	1255
645.04315	1191
645.55499	1263
646.06683	1280
646.57861	1316
647.09045	1241
647.60217	1251
648.11395	1199
648.62567	1280
649.13733	1236
649.64905	1132
650.16064	1153
650.6723	1192
651.1839	1247
651.6955	1191
652.20709	1161
652.71863	1157
653.23016	1089
653.74164	1211
654.25311	1141
654.76459	1091
655.276	1062
655.78741	1047
656.29883	1145
656.81018	1125
657.32153	1029
657.83289	1083
658.34418	1083
658.85547	1115
659.3667	1023
659.87793	1083
660.38916	1027
660.90033	1077
661.4115	945
661.92267	1055
662.43378	1028
662.94489	1008
663.45593	989
663.96698	1003
664.47803	929
664.98907	1037
665.50006	955
666.01099	972
666.52191	965
667.03284	978
667.54376	913
668.05463	996
668.56549	942
669.07629	996
669.5871	944
670.0979	894
670.60864	942
671.11938	887
671.63007	925
672.14075	937
672.65143	863
673.16205	879
673.67267	947
674.18329	940
674.69385	919
675.20435	880
675.7149	887
676.2254	892
676.73584	850
677.24628	841
677.75671	836
678.26715	849
678.77753	813
679.28784	872
679.79822	866
680.30847	829
680.81879	816
681.32904	830
681.83923	843
682.34949	865
682.85968	773
683.36981	805
683.87994	799
684.39008	828
684.90015	742
685.41022	778
685.92023	775
686.43024	767
686.94025	773
687.4502	762
687.96014	781
688.47003	731
688.97992	743
689.48981	728
689.99963	716
690.50946	711
691.01923	742
691.52899	756
692.03876	813
692.54846	736
693.05817	727
693.56781	730
694.07745	717
694.58704	691
695.09662	725
695.6062	690
696.11572	727
696.62524	694
697.1347	704
697.64417	714
698.15363	651
698.66302	644
699.17242	660
699.68176	734
700.1911	665
700.70044	642
701.20972	703
701.71893	647
702.22815	626
702.73737	667
703.24652	646
703.75568	613
704.26483	688
704.77393	601
705.28302	618
705.79205	634
706.30103	580
706.81006	620
707.31903	568
707.82794	608
708.33685	633
708.84576	580
709.35461	629
709.86346	617
710.37225	629
710.88104	667
711.38977	580
711.8985	568
712.40723	581
712.91589	609
713.42456	600
713.93317	607
714.44177	556
714.95032	585
715.45886	565
715.96735	561
716.47583	575
716.98431	561
717.49274	577
718.00116	608
718.50952	579
719.01788	515
719.52618	563
720.03448	577
720.54272	574
721.05096	539
721.5592	575
722.06738	545
722.57556	557
723.08368	604
723.59174	557
724.09985	545
724.60791	566
725.11591	569
725.6239	561
726.13184	545
726.63977	554
727.14771	566
727.65558	554
728.16339	539
728.67126	530
729.17902	522
729.68683	527
730.19452	525
730.70227	529
731.2099	540
731.71759	498
732.22522	532
732.73279	531
733.24036	525
733.74792	541
734.25543	533
734.76288	524
735.27032	511
735.77777	556
736.28516	508
736.79254	486
737.29987	500
737.80719	499
738.31445	481
738.82172	467
739.32892	487
739.83612	466
740.34326	487
740.8504	507
741.35748	481
741.86456	482
742.37164	497
742.87866	496
743.38562	458
743.89258	483
744.39954	484
744.90643	501
745.41327	463
745.9201	467
746.42694	459
746.93372	449
747.44049	463
747.9472	485
748.45386	469
748.96057	442
749.46716	464
749.97375	461
750.48035	447
750.98688	459
751.49341	464
751.99988	463
752.50635	445
753.01276	445
753.51917	438
754.02551	452
754.53186	447
755.03815	457
755.54443	466
756.05066	467
756.55688	468
757.06305	413
757.56921	452
758.07532	463
758.58142	440
759.08746	405
759.59351	397
760.09949	433
760.60547	452
761.11139	445
761.61725	409
762.12317	426
762.62897	444
763.13483	439
763.64056	425
764.1463	433
764.65204	411
765.15771	458
765.66339	420
766.16901	416
766.67462	436
767.18018	392
767.68567	416
768.19116	421
768.69666	430
769.20209	428
769.70746	428
770.21283	434
770.7182	416
771.22351	417
771.72876	417
772.23401	425
772.73926	419
773.24445	418
773.74957	377
774.2547	390
774.75977	427
775.26483	422
775.76984	372
776.27484	399
776.77979	412
777.28473	433
777.78961	385
778.29449	390
778.79932	390
779.30408	396
779.80884	402
780.3136	401
780.8183	372
781.32294	393
781.82758	365
782.33215	409
782.83673	412
783.34131	412
783.84576	384
784.35028	393
784.85468	363
785.35907	408
785.86346	381
786.3678	400
786.87213	394
787.3764	393
787.88062	401
788.38483	412
788.88898	386
789.39313	375
789.89722	379
790.40131	406
790.90533	356
791.40936	401
791.91333	384
792.4173	414
792.9212	372
793.42505	387
793.92889	355
794.43268	400
794.93646	411
795.44019	371
795.94391	358
796.44757	383
796.95123	366
797.45483	400
797.95837	379
798.46191	362
798.96539	350
799.46887	376
799.97235	389
800.47571	375
800.97906	367
801.48242	377
801.98572	366
802.48895	355
802.99219	368
803.49536	364
803.99854	374
804.50165	369
805.00476	380
805.50781	362
806.01086	369
806.51379	382
807.01678	367
807.51971	354
808.02258	378
808.52539	370
809.02826	352
809.53101	355
810.03375	356
810.53644	348
811.03912	363
811.54175	353
812.04437	365
812.54694	376
813.04944	369
813.55194	367
814.05444	347
814.55682	352
815.05927	355
815.56158	378
816.0639	362
816.56622	388
817.06842	383
817.57068	375
818.07281	367
818.57495	361
819.07709	378
819.57916	332
820.08118	349
820.58319	347
821.08514	354
821.5871	353
822.08899	366
822.59082	401
823.09265	356
823.59442	363
824.09619	362
824.5979	352
825.09955	353
825.6012	357
826.10278	328
826.60437	365
827.1059	355
827.60736	373
828.10883	348
828.61023	365
829.11163	339
829.61298	354
830.11432	374
830.61554	351
831.11682	321
831.61798	352
832.11914	355
832.6203	340
833.1214	351
833.62244	361
834.12347	336
834.62445	342
835.12537	336
835.62628	360
836.12714	351
836.62799	346
837.12878	341
837.62952	344
838.13025	357
838.63092	372
839.13153	357
839.63214	351
840.13275	360
840.63324	349
841.13373	333
841.63422	342
842.13464	372
842.63501	374
843.13538	371
843.63568	332
844.13593	362
844.63617	350
845.13635	318
845.63647	382
846.1366	334
846.63672	343
847.13672	366
847.63672	374
848.13672	338
848.6366	358
849.13647	369
849.63635	338
850.13617	343
850.63593	339
851.13568	341
851.63538	356
852.13501	319
852.63464	336
853.13422	362
853.63373	351
854.13324	359
854.63275	350
855.13214	362
855.63153	361
856.13086	352
856.63019	344
857.12946	348
857.62866	349
858.12787	364
858.62701	372
859.12616	332
859.62524	332
860.12427	365
860.62323	351
861.12219	370
861.62109	348
862.12	322
862.61884	314
863.11761	337
863.61639	327
864.11511	337
864.61377	359
865.11243	373
865.61102	358
866.10962	335
866.60809	340
867.10663	352
867.60504	342
868.10345	341
868.60181	343
869.10016	359
869.59839	369
870.09668	413
870.59485	504
871.09302	617
871.59113	712
872.08923	762
872.58728	826
873.08527	873
873.58325	856
874.08118	911
874.57904	895
875.0769	880
875.57465	944
876.07245	962
876.57013	941
877.06781	921
877.56549	950
878.06305	980
878.56061	975
879.05817	964
879.5556	904
880.05304	971
880.55042	958
881.04779	971
881.5451	929
882.04236	937
882.53961	965
883.0368	981
883.53394	995
884.03107	1018
884.52808	939
885.02515	944
