Date and Time:                Fri Oct 17 06:47:02.066 2025
Software Version:             4.30.30000.0
Temperature (C):              -90
Model:                        DU971P_UVB
Data Type:                    Counts
Acquisition Mode:             Single Scan
Trigger Mode:                 Internal
Exposure Time (secs):         0.5
Readout Mode:                 Full Vertical Binning
Horizontal binning:           2
Extended Dynamic Range:       off
Horizontally flipped:         false
Vertical Shift Speed (usecs): 9.68
Pixel Readout Rate (MHz):     3
Baseline Clamp:               ON
Clock Amplitude:              Normal
Output Amplifier:             Conventional
Serial Number:                20367
Pre-Amplifier Gain:           4x
Spurious Noise Filter Mode:   No Filter
Photon counted:               false
Data Averaging Filter Mode:   No Filter
SR193i:
Serial Number:                SR-2646
Wavelength (nm):              690
Grating Groove Density (l/mm):300
Grating Blaze:                500nm
Input Side Slit Width (um):   1000



478.32681	272
478.84332	337
479.35983	317
479.87631	298
480.39282	329
480.9093	316
481.42575	328
481.94223	323
482.45868	335
482.97513	327
483.49158	333
484.00803	372
484.52444	397
485.04086	444
485.55728	494
486.07367	564
486.59006	544
487.10645	623
487.62283	658
488.13919	730
488.65555	706
489.17191	803
489.68826	840
490.20459	898
490.72092	923
491.23724	967
491.75354	1019
492.26984	1094
492.78613	1126
493.30243	1210
493.8187	1208
494.33496	1329
494.85123	1351
495.36746	1443
495.8837	1539
496.39993	1471
496.91617	1575
497.43237	1698
497.94858	1767
498.46478	1826
498.98096	1924
499.49713	1972
500.01331	2176
500.52945	2259
501.04562	2246
501.56174	2417
502.07788	2822
502.59399	3028
503.11011	3358
503.62622	3663
504.1423	4104
504.65839	4447
505.17447	4800
505.69052	5489
506.20657	6069
506.72263	6695
507.23865	7313
507.75467	8219
508.27069	9161
508.78668	10174
509.30267	11006
509.81866	12256
510.33463	13176
510.85059	14348
511.36655	14883
511.88248	16108
512.39844	16839
512.91437	17331
513.43024	17898
513.94617	18421
514.46204	19066
514.97791	19160
515.49377	19341
516.00964	19197
516.52551	19365
517.04132	19723
517.55719	18968
518.073	18906
518.58881	18495
519.10461	18152
519.62036	17524
520.13617	17201
520.65192	16445
521.16766	15602
521.68341	15286
522.1991	14218
522.71484	13450
523.23053	12639
523.74622	11858
524.2619	10832
524.77759	9754
525.29327	8749
525.8089	7977
526.32452	6930
526.84015	6261
527.35577	5652
527.8714	4776
528.38696	4436
528.90259	3957
529.41815	3464
529.93372	3101
530.44922	2897
530.96478	2635
531.48029	2599
531.99579	2406
532.51129	2384
533.02679	2283
533.5423	2228
534.05774	2208
534.57318	2097
535.08862	2219
535.60406	2098
536.11945	2125
536.63489	2100
537.15027	1983
537.66565	1994
538.18097	1972
538.69635	1936
539.21167	1779
539.72699	1849
540.24231	1771
540.75763	1819
541.27289	1740
541.78821	1665
542.30347	1724
542.81873	1700
543.33392	1647
543.84918	1542
544.36438	1520
544.87958	1570
545.39478	1510
545.90991	1464
546.42511	1505
546.94025	1443
547.45538	1515
547.97052	1429
548.4856	1368
549.00073	1378
549.51581	1325
550.03088	1367
550.5459	1322
551.06097	1312
551.57599	1311
552.091	1237
552.60602	1310
553.12097	1246
553.63593	1259
554.15094	1236
554.66583	1243
555.18079	1254
555.69568	1233
556.21063	1178
556.72552	1173
557.24036	1226
557.75525	1198
558.27008	1180
558.78491	1151
559.29974	1136
559.81458	1170
560.32935	1170
560.84412	1085
561.35889	1119
561.87366	1159
562.38837	1101
562.90308	1098
563.41779	1089
563.9325	1095
564.44714	1084
564.96179	1075
565.47644	1033
565.99109	1059
566.50574	1071
567.02032	1036
567.53491	1031
568.0495	960
568.56403	1056
569.07861	1026
569.59314	1009
570.1076	985
570.62213	1036
571.1366	1023
571.65106	985
572.16553	948
572.67999	1014
573.1944	977
573.7088	919
574.22321	985
574.73755	968
575.25195	962
575.7663	905
576.28058	927
576.79492	894
577.3092	881
577.82349	924
578.33777	892
578.85205	854
579.36627	917
579.88049	890
580.39471	887
580.90887	888
581.42303	881
581.93719	882
582.45135	890
582.96545	838
583.47955	861
583.99365	839
584.50775	812
585.02179	803
585.53583	787
586.04987	791
586.5639	816
587.07788	798
587.59186	801
588.10583	781
588.61975	836
589.13373	808
589.64758	773
590.1615	834
590.67542	804
591.18927	795
591.70306	737
592.21692	749
592.73071	748
593.24451	749
593.7583	720
594.27209	713
594.78583	749
595.29956	750
595.81323	756
596.32697	680
596.84064	702
597.35425	693
597.86792	748
598.38153	711
598.89514	690
599.40875	730
599.9223	709
600.43585	665
600.9494	693
601.46289	649
601.97638	691
602.48987	655
603.00336	666
603.51678	656
604.03021	668
604.54364	652
605.05701	665
605.57043	634
606.08374	641
606.59711	612
607.11041	609
607.62372	646
608.13702	640
608.65027	611
609.16351	652
609.67676	576
610.19	620
610.70319	589
611.21637	620
611.72949	648
612.24268	624
612.75574	627
613.26886	575
613.78192	566
614.29504	600
614.80804	580
615.32111	619
615.83411	537
616.34711	561
616.86005	600
617.37299	570
617.88593	596
618.39886	551
618.91174	582
619.42462	595
619.9375	552
620.45032	556
620.96313	570
621.47595	560
621.98871	602
622.50146	561
623.01422	571
623.52692	539
624.03967	564
624.55231	526
625.065	539
625.57764	540
626.09027	526
626.60284	531
627.11542	537
627.62799	543
628.14056	508
628.65308	538
629.16559	520
629.6781	506
630.19055	549
630.703	514
631.21539	562
631.72784	492
632.24017	485
632.75256	520
633.26489	509
633.77722	513
634.28955	462
634.80182	535
635.31409	504
635.82635	523
636.33856	487
636.85077	488
637.36292	497
637.87512	458
638.38721	478
638.89935	460
639.41144	457
639.92352	489
640.43561	427
640.94763	456
641.45966	462
641.97162	424
642.48358	447
642.99554	477
643.50751	434
644.01941	478
644.53131	418
645.04315	470
645.55499	460
646.06683	440
646.57861	474
647.09045	431
647.60217	450
648.11395	444
648.62567	401
649.13733	414
649.64905	429
650.16064	418
650.6723	404
651.1839	416
651.6955	445
652.20709	433
652.71863	418
653.23016	428
653.74164	415
654.25311	390
654.76459	401
655.276	405
655.78741	400
656.29883	440
656.81018	424
657.32153	434
657.83289	450
658.34418	391
658.85547	399
659.3667	426
659.87793	390
660.38916	417
660.90033	398
661.4115	400
661.92267	399
662.43378	397
662.94489	397
663.45593	412
663.96698	419
664.47803	404
664.98907	399
665.50006	394
666.01099	395
666.52191	411
667.03284	356
667.54376	363
668.05463	382
668.56549	382
669.07629	402
669.5871	371
670.0979	357
670.60864	389
671.11938	383
671.63007	374
672.14075	364
672.65143	403
673.16205	361
673.67267	393
674.18329	368
674.69385	380
675.20435	344
675.7149	401
676.2254	355
676.73584	374
677.24628	392
677.75671	376
678.26715	378
678.77753	377
679.28784	355
679.79822	381
680.30847	354
680.81879	358
681.32904	372
681.83923	393
682.34949	376
682.85968	350
683.36981	392
683.87994	384
684.39008	377
684.90015	351
685.41022	354
685.92023	361
686.43024	371
686.94025	346
687.4502	360
687.96014	347
688.47003	371
688.97992	349
689.48981	365
689.99963	349
690.50946	355
691.01923	377
691.52899	355
692.03876	387
692.54846	353
693.05817	329
693.56781	349
694.07745	356
694.58704	340
695.09662	362
695.6062	336
696.11572	342
696.62524	349
697.1347	361
697.64417	337
698.15363	354
698.66302	351
699.17242	374
699.68176	347
700.1911	350
700.70044	350
701.20972	343
701.71893	296
702.22815	314
702.73737	336
703.24652	359
703.75568	329
704.26483	350
704.77393	336
705.28302	335
705.79205	347
706.30103	345
706.81006	351
707.31903	337
707.82794	344
708.33685	343
708.84576	362
709.35461	323
709.86346	345
710.37225	311
710.88104	336
711.38977	340
711.8985	321
712.40723	332
712.91589	359
713.42456	341
713.93317	343
714.44177	307
714.95032	341
715.45886	326
715.96735	334
716.47583	318
716.98431	324
717.49274	341
718.00116	333
718.50952	346
719.01788	358
719.52618	350
720.03448	352
720.54272	349
721.05096	340
721.5592	326
722.06738	335
722.57556	332
723.08368	355
723.59174	331
724.09985	330
724.60791	339
725.11591	336
725.6239	350
726.13184	324
726.63977	327
727.14771	354
727.65558	334
728.16339	307
728.67126	327
729.17902	330
729.68683	297
730.19452	333
730.70227	324
731.2099	341
731.71759	327
732.22522	320
732.73279	325
733.24036	327
733.74792	324
734.25543	334
734.76288	328
735.27032	322
735.77777	330
736.28516	315
736.79254	335
737.29987	299
737.80719	308
738.31445	332
738.82172	310
739.32892	337
739.83612	329
740.34326	319
740.8504	325
741.35748	327
741.86456	332
742.37164	319
742.87866	343
743.38562	316
743.89258	319
744.39954	314
744.90643	304
745.41327	319
745.9201	346
746.42694	331
746.93372	324
747.44049	322
747.9472	324
748.45386	329
748.96057	312
749.46716	329
749.97375	309
750.48035	319
750.98688	321
751.49341	321
751.99988	330
752.50635	324
753.01276	335
753.51917	320
754.02551	308
754.53186	344
755.03815	323
755.54443	319
756.05066	310
756.55688	319
757.06305	330
757.56921	336
758.07532	311
758.58142	323
759.08746	318
759.59351	319
760.09949	312
760.60547	331
761.11139	324
761.61725	330
762.12317	334
762.62897	307
763.13483	329
763.64056	314
764.1463	317
764.65204	335
765.15771	329
765.66339	316
766.16901	315
766.67462	337
767.18018	288
767.68567	330
768.19116	329
768.69666	324
769.20209	325
769.70746	327
770.21283	315
770.7182	326
771.22351	312
771.72876	340
772.23401	311
772.73926	300
773.24445	319
773.74957	303
774.2547	333
774.75977	294
775.26483	291
775.76984	326
776.27484	315
776.77979	308
777.28473	320
777.78961	317
778.29449	329
778.79932	293
779.30408	327
779.80884	310
780.3136	285
780.8183	306
781.32294	311
781.82758	310
782.33215	303
782.83673	302
783.34131	298
783.84576	316
784.35028	327
784.85468	322
785.35907	325
785.86346	285
786.3678	332
786.87213	342
787.3764	323
787.88062	289
788.38483	309
788.88898	300
789.39313	326
789.89722	313
790.40131	316
790.90533	307
791.40936	319
791.91333	342
792.4173	328
792.9212	314
793.42505	324
793.92889	296
794.43268	323
794.93646	308
795.44019	320
795.94391	329
796.44757	313
796.95123	309
797.45483	318
797.95837	309
798.46191	302
798.96539	301
799.46887	301
799.97235	309
800.47571	316
800.97906	306
801.48242	311
801.98572	310
802.48895	317
802.99219	312
803.49536	301
803.99854	294
804.50165	303
805.00476	317
805.50781	317
806.01086	321
806.51379	313
807.01678	318
807.51971	325
808.02258	305
808.52539	327
809.02826	338
809.53101	314
810.03375	318
810.53644	307
811.03912	317
811.54175	292
812.04437	321
812.54694	323
813.04944	308
813.55194	297
814.05444	283
814.55682	294
815.05927	334
815.56158	313
816.0639	306
816.56622	316
817.06842	307
817.57068	311
818.07281	310
818.57495	317
819.07709	319
819.57916	323
820.08118	311
820.58319	311
821.08514	305
821.5871	289
822.08899	321
822.59082	319
823.09265	300
823.59442	319
824.09619	309
824.5979	314
825.09955	328
825.6012	334
826.10278	321
826.60437	322
827.1059	311
827.60736	312
828.10883	307
828.61023	336
829.11163	317
829.61298	303
830.11432	329
830.61554	322
831.11682	305
831.61798	305
832.11914	312
832.6203	315
833.1214	308
833.62244	317
834.12347	324
834.62445	325
835.12537	332
835.62628	313
836.12714	308
836.62799	290
837.12878	314
837.62952	319
838.13025	329
838.63092	306
839.13153	318
839.63214	320
840.13275	309
840.63324	299
841.13373	311
841.63422	320
842.13464	321
842.63501	325
843.13538	325
843.63568	302
844.13593	314
844.63617	302
845.13635	331
845.63647	314
846.1366	320
846.63672	295
847.13672	293
847.63672	317
848.13672	330
848.6366	323
849.13647	337
849.63635	321
850.13617	318
850.63593	306
851.13568	310
851.63538	323
852.13501	306
852.63464	328
853.13422	315
853.63373	330
854.13324	330
854.63275	365
855.13214	318
855.63153	315
856.13086	296
856.63019	310
857.12946	302
857.62866	310
858.12787	313
858.62701	335
859.12616	303
859.62524	333
860.12427	299
860.62323	343
861.12219	320
861.62109	317
862.12	321
862.61884	312
863.11761	318
863.61639	313
864.11511	321
864.61377	327
865.11243	310
865.61102	299
866.10962	314
866.60809	299
867.10663	297
867.60504	310
868.10345	294
868.60181	314
869.10016	326
869.59839	294
870.09668	321
870.59485	327
871.09302	305
871.59113	299
872.08923	325
872.58728	305
873.08527	321
873.58325	313
874.08118	315
874.57904	331
875.0769	305
875.57465	325
876.07245	337
876.57013	325
877.06781	323
877.56549	343
878.06305	305
878.56061	308
879.05817	324
879.5556	309
880.05304	318
880.55042	322
881.04779	334
881.5451	322
882.04236	344
882.53961	318
883.0368	330
883.53394	329
884.03107	321
884.52808	333
885.02515	307
