Date and Time:                Sun Nov 2 14:31:03.546 2025
Software Version:             4.30.30000.0
Temperature (C):              -90
Model:                        DU971P_UVB
Data Type:                    Counts
Acquisition Mode:             Single Scan
Trigger Mode:                 Internal
Exposure Time (secs):         0.5
Readout Mode:                 Full Vertical Binning
Horizontal binning:           2
Extended Dynamic Range:       off
Horizontally flipped:         false
Vertical Shift Speed (usecs): 9.68
Pixel Readout Rate (MHz):     3
Baseline Clamp:               ON
Clock Amplitude:              Normal
Output Amplifier:             Conventional
Serial Number:                20367
Pre-Amplifier Gain:           4x
Spurious Noise Filter Mode:   No Filter
Photon counted:               false
Data Averaging Filter Mode:   No Filter
SR193i:
Serial Number:                SR-2646
Wavelength (nm):              690
Grating Groove Density (l/mm):300
Grating Blaze:                500nm
Input Side Slit Width (um):   1000



478.32681	268
478.84332	316
479.35983	329
479.87631	352
480.39282	315
480.9093	329
481.42575	316
481.94223	325
482.45868	343
482.97513	352
483.49158	358
484.00803	384
484.52444	395
485.04086	443
485.55728	486
486.07367	551
486.59006	561
487.10645	653
487.62283	651
488.13919	719
488.65555	782
489.17191	823
489.68826	899
490.20459	959
490.72092	997
491.23724	1029
491.75354	1023
492.26984	1167
492.78613	1214
493.30243	1303
493.8187	1330
494.33496	1299
494.85123	1484
495.36746	1496
495.8837	1617
496.39993	1619
496.91617	1645
497.43237	1793
497.94858	1843
498.46478	2031
498.98096	2048
499.49713	2115
500.01331	2180
500.52945	2185
501.04562	2466
501.56174	2604
502.07788	2803
502.59399	3073
503.11011	3344
503.62622	3541
504.1423	4093
504.65839	4445
505.17447	5090
505.69052	5444
506.20657	6213
506.72263	6772
507.23865	7524
507.75467	8207
508.27069	9143
508.78668	10194
509.30267	11045
509.81866	12119
510.33463	13465
510.85059	14668
511.36655	15227
511.88248	16332
512.39844	17214
512.91437	18003
513.43024	18447
513.94617	19371
514.46204	19978
514.97791	19668
515.49377	20020
516.00964	20343
516.52551	20291
517.04132	20284
517.55719	19995
518.073	19590
518.58881	19201
519.10461	18997
519.62036	18505
520.13617	18141
520.65192	17471
521.16766	16814
521.68341	16075
522.1991	15383
522.71484	14735
523.23053	13927
523.74622	12589
524.2619	11761
524.77759	10933
525.29327	9880
525.8089	8504
526.32452	7776
526.84015	6811
527.35577	6115
527.8714	5398
528.38696	4846
528.90259	4351
529.41815	3836
529.93372	3411
530.44922	3117
530.96478	2857
531.48029	2720
531.99579	2685
532.51129	2482
533.02679	2389
533.5423	2361
534.05774	2400
534.57318	2305
535.08862	2264
535.60406	2209
536.11945	2243
536.63489	2231
537.15027	2149
537.66565	2146
538.18097	2071
538.69635	2101
539.21167	2074
539.72699	1950
540.24231	1907
540.75763	1882
541.27289	1776
541.78821	1798
542.30347	1737
542.81873	1773
543.33392	1736
543.84918	1671
544.36438	1647
544.87958	1655
545.39478	1537
545.90991	1612
546.42511	1540
546.94025	1533
547.45538	1490
547.97052	1472
548.4856	1486
549.00073	1449
549.51581	1367
550.03088	1455
550.5459	1415
551.06097	1371
551.57599	1385
552.091	1338
552.60602	1355
553.12097	1312
553.63593	1262
554.15094	1245
554.66583	1362
555.18079	1299
555.69568	1264
556.21063	1297
556.72552	1291
557.24036	1227
557.75525	1224
558.27008	1199
558.78491	1233
559.29974	1232
559.81458	1162
560.32935	1213
560.84412	1204
561.35889	1160
561.87366	1145
562.38837	1170
562.90308	1169
563.41779	1251
563.9325	1174
564.44714	1078
564.96179	1140
565.47644	1100
565.99109	1187
566.50574	1136
567.02032	1084
567.53491	1086
568.0495	1080
568.56403	1079
569.07861	1013
569.59314	1091
570.1076	1073
570.62213	1002
571.1366	1059
571.65106	1072
572.16553	1046
572.67999	1083
573.1944	953
573.7088	932
574.22321	1030
574.73755	1012
575.25195	929
575.7663	1001
576.28058	966
576.79492	974
577.3092	922
577.82349	973
578.33777	969
578.85205	909
579.36627	911
579.88049	910
580.39471	883
580.90887	928
581.42303	910
581.93719	906
582.45135	930
582.96545	850
583.47955	877
583.99365	898
584.50775	824
585.02179	856
585.53583	856
586.04987	851
586.5639	834
587.07788	843
587.59186	840
588.10583	819
588.61975	818
589.13373	781
589.64758	799
590.1615	889
590.67542	801
591.18927	751
591.70306	795
592.21692	744
592.73071	772
593.24451	751
593.7583	784
594.27209	789
594.78583	743
595.29956	757
595.81323	733
596.32697	768
596.84064	775
597.35425	747
597.86792	728
598.38153	762
598.89514	733
599.40875	722
599.9223	763
600.43585	741
600.9494	715
601.46289	660
601.97638	707
602.48987	689
603.00336	680
603.51678	611
604.03021	673
604.54364	675
605.05701	683
605.57043	652
606.08374	653
606.59711	655
607.11041	618
607.62372	633
608.13702	651
608.65027	652
609.16351	607
609.67676	635
610.19	626
610.70319	664
611.21637	635
611.72949	585
612.24268	606
612.75574	623
613.26886	663
613.78192	609
614.29504	593
614.80804	615
615.32111	625
615.83411	590
616.34711	574
616.86005	564
617.37299	607
617.88593	606
618.39886	565
618.91174	602
619.42462	561
619.9375	570
620.45032	588
620.96313	609
621.47595	592
621.98871	591
622.50146	609
623.01422	527
623.52692	568
624.03967	544
624.55231	581
625.065	586
625.57764	548
626.09027	520
626.60284	600
627.11542	570
627.62799	563
628.14056	529
628.65308	557
629.16559	534
629.6781	505
630.19055	531
630.703	522
631.21539	529
631.72784	544
632.24017	507
632.75256	552
633.26489	545
633.77722	505
634.28955	512
634.80182	548
635.31409	499
635.82635	502
636.33856	475
636.85077	495
637.36292	511
637.87512	513
638.38721	512
638.89935	509
639.41144	484
639.92352	469
640.43561	492
640.94763	477
641.45966	474
641.97162	441
642.48358	470
642.99554	492
643.50751	483
644.01941	465
644.53131	423
645.04315	453
645.55499	459
646.06683	444
646.57861	458
647.09045	433
647.60217	452
648.11395	468
648.62567	451
649.13733	451
649.64905	448
650.16064	438
650.6723	462
651.1839	433
651.6955	439
652.20709	449
652.71863	429
653.23016	434
653.74164	419
654.25311	443
654.76459	437
655.276	436
655.78741	426
656.29883	425
656.81018	415
657.32153	440
657.83289	434
658.34418	416
658.85547	395
659.3667	404
659.87793	390
660.38916	406
660.90033	409
661.4115	386
661.92267	419
662.43378	410
662.94489	395
663.45593	397
663.96698	408
664.47803	402
664.98907	387
665.50006	398
666.01099	416
666.52191	394
667.03284	381
667.54376	418
668.05463	378
668.56549	389
669.07629	411
669.5871	386
670.0979	430
670.60864	394
671.11938	404
671.63007	393
672.14075	408
672.65143	387
673.16205	387
673.67267	408
674.18329	395
674.69385	372
675.20435	378
675.7149	364
676.2254	390
676.73584	393
677.24628	375
677.75671	401
678.26715	351
678.77753	394
679.28784	366
679.79822	386
680.30847	358
680.81879	371
681.32904	374
681.83923	382
682.34949	380
682.85968	369
683.36981	333
683.87994	361
684.39008	379
684.90015	351
685.41022	353
685.92023	360
686.43024	374
686.94025	372
687.4502	367
687.96014	370
688.47003	354
688.97992	386
689.48981	347
689.99963	340
690.50946	376
691.01923	355
691.52899	336
692.03876	383
692.54846	354
693.05817	352
693.56781	338
694.07745	368
694.58704	347
695.09662	353
695.6062	366
696.11572	353
696.62524	382
697.1347	342
697.64417	350
698.15363	345
698.66302	330
699.17242	350
699.68176	368
700.1911	357
700.70044	364
701.20972	355
701.71893	348
702.22815	339
702.73737	352
703.24652	366
703.75568	351
704.26483	329
704.77393	321
705.28302	373
705.79205	352
706.30103	339
706.81006	352
707.31903	345
707.82794	343
708.33685	337
708.84576	351
709.35461	358
709.86346	330
710.37225	338
710.88104	351
711.38977	360
711.8985	334
712.40723	333
712.91589	355
713.42456	335
713.93317	349
714.44177	331
714.95032	350
715.45886	343
715.96735	327
716.47583	321
716.98431	333
717.49274	336
718.00116	324
718.50952	325
719.01788	334
719.52618	347
720.03448	319
720.54272	341
721.05096	340
721.5592	321
722.06738	327
722.57556	331
723.08368	326
723.59174	304
724.09985	337
724.60791	334
725.11591	351
725.6239	338
726.13184	349
726.63977	368
727.14771	309
727.65558	334
728.16339	337
728.67126	311
729.17902	339
729.68683	342
730.19452	338
730.70227	327
731.2099	313
731.71759	311
732.22522	350
732.73279	347
733.24036	336
733.74792	317
734.25543	330
734.76288	331
735.27032	356
735.77777	323
736.28516	332
736.79254	338
737.29987	329
737.80719	340
738.31445	322
738.82172	318
739.32892	330
739.83612	323
740.34326	348
740.8504	341
741.35748	356
741.86456	315
742.37164	334
742.87866	344
743.38562	346
743.89258	308
744.39954	320
744.90643	323
745.41327	314
745.9201	326
746.42694	332
746.93372	309
747.44049	315
747.9472	332
748.45386	301
748.96057	307
749.46716	326
749.97375	343
750.48035	324
750.98688	327
751.49341	303
751.99988	323
752.50635	342
753.01276	320
753.51917	345
754.02551	335
754.53186	290
755.03815	327
755.54443	325
756.05066	335
756.55688	322
757.06305	325
757.56921	308
758.07532	330
758.58142	314
759.08746	337
759.59351	310
760.09949	334
760.60547	315
761.11139	337
761.61725	307
762.12317	333
762.62897	325
763.13483	337
763.64056	318
764.1463	334
764.65204	319
765.15771	336
765.66339	308
766.16901	312
766.67462	319
767.18018	335
767.68567	313
768.19116	307
768.69666	317
769.20209	303
769.70746	329
770.21283	326
770.7182	315
771.22351	320
771.72876	330
772.23401	328
772.73926	301
773.24445	314
773.74957	308
774.2547	323
774.75977	326
775.26483	319
775.76984	338
776.27484	295
776.77979	328
777.28473	341
777.78961	307
778.29449	320
778.79932	301
779.30408	307
779.80884	308
780.3136	329
780.8183	311
781.32294	339
781.82758	327
782.33215	313
782.83673	314
783.34131	299
783.84576	304
784.35028	313
784.85468	306
785.35907	333
785.86346	335
786.3678	329
786.87213	327
787.3764	286
787.88062	330
788.38483	317
788.88898	337
789.39313	315
789.89722	312
790.40131	323
790.90533	319
791.40936	319
791.91333	327
792.4173	315
792.9212	305
793.42505	324
793.92889	302
794.43268	311
794.93646	323
795.44019	342
795.94391	324
796.44757	332
796.95123	337
797.45483	322
797.95837	324
798.46191	321
798.96539	319
799.46887	317
799.97235	323
800.47571	320
800.97906	327
801.48242	318
801.98572	313
802.48895	343
802.99219	302
803.49536	320
803.99854	315
804.50165	297
805.00476	312
805.50781	341
806.01086	315
806.51379	318
807.01678	298
807.51971	304
808.02258	346
808.52539	316
809.02826	335
809.53101	293
810.03375	334
810.53644	341
811.03912	334
811.54175	323
812.04437	312
812.54694	309
813.04944	309
813.55194	335
814.05444	318
814.55682	338
815.05927	313
815.56158	301
816.0639	300
816.56622	313
817.06842	290
817.57068	307
818.07281	327
818.57495	305
819.07709	302
819.57916	313
820.08118	312
820.58319	327
821.08514	307
821.5871	320
822.08899	308
822.59082	302
823.09265	299
823.59442	311
824.09619	333
824.5979	324
825.09955	320
825.6012	324
826.10278	323
826.60437	320
827.1059	315
827.60736	321
828.10883	300
828.61023	304
829.11163	287
829.61298	322
830.11432	310
830.61554	308
831.11682	292
831.61798	310
832.11914	312
832.6203	300
833.1214	289
833.62244	306
834.12347	318
834.62445	308
835.12537	307
835.62628	314
836.12714	303
836.62799	295
837.12878	321
837.62952	302
838.13025	312
838.63092	325
839.13153	301
839.63214	315
840.13275	311
840.63324	333
841.13373	302
841.63422	297
842.13464	332
842.63501	322
843.13538	312
843.63568	290
844.13593	311
844.63617	323
845.13635	309
845.63647	318
846.1366	306
846.63672	315
847.13672	309
847.63672	303
848.13672	309
848.6366	314
849.13647	311
849.63635	315
850.13617	301
850.63593	319
851.13568	305
851.63538	312
852.13501	320
852.63464	325
853.13422	273
853.63373	326
854.13324	310
854.63275	309
855.13214	317
855.63153	334
856.13086	307
856.63019	313
857.12946	303
857.62866	325
858.12787	328
858.62701	312
859.12616	312
859.62524	308
860.12427	310
860.62323	317
861.12219	306
861.62109	314
862.12	316
862.61884	332
863.11761	299
863.61639	317
864.11511	303
864.61377	312
865.11243	304
865.61102	323
866.10962	307
866.60809	315
867.10663	323
867.60504	302
868.10345	315
868.60181	325
869.10016	311
869.59839	344
870.09668	329
870.59485	314
871.09302	312
871.59113	319
872.08923	313
872.58728	303
873.08527	336
873.58325	338
874.08118	337
874.57904	331
875.0769	310
875.57465	319
876.07245	301
876.57013	312
877.06781	311
877.56549	323
878.06305	324
878.56061	310
879.05817	327
879.5556	335
880.05304	305
880.55042	340
881.04779	318
881.5451	322
882.04236	346
882.53961	317
883.0368	312
883.53394	346
884.03107	329
884.52808	317
885.02515	309
