Date and Time:                Sun Nov 2 14:31:37.364 2025
Software Version:             4.30.30000.0
Temperature (C):              -90
Model:                        DU971P_UVB
Data Type:                    Counts
Acquisition Mode:             Single Scan
Trigger Mode:                 Internal
Exposure Time (secs):         0.5
Readout Mode:                 Full Vertical Binning
Horizontal binning:           2
Extended Dynamic Range:       off
Horizontally flipped:         false
Vertical Shift Speed (usecs): 9.68
Pixel Readout Rate (MHz):     3
Baseline Clamp:               ON
Clock Amplitude:              Normal
Output Amplifier:             Conventional
Serial Number:                20367
Pre-Amplifier Gain:           4x
Spurious Noise Filter Mode:   No Filter
Photon counted:               false
Data Averaging Filter Mode:   No Filter
SR193i:
Serial Number:                SR-2646
Wavelength (nm):              690
Grating Groove Density (l/mm):300
Grating Blaze:                500nm
Input Side Slit Width (um):   1000



478.32681	285
478.84332	304
479.35983	327
479.87631	328
480.39282	338
480.9093	310
481.42575	327
481.94223	317
482.45868	299
482.97513	324
483.49158	347
484.00803	356
484.52444	422
485.04086	437
485.55728	501
486.07367	526
486.59006	558
487.10645	667
487.62283	642
488.13919	684
488.65555	763
489.17191	836
489.68826	889
490.20459	918
490.72092	956
491.23724	1019
491.75354	1075
492.26984	1086
492.78613	1183
493.30243	1273
493.8187	1319
494.33496	1402
494.85123	1423
495.36746	1565
495.8837	1579
496.39993	1602
496.91617	1684
497.43237	1795
497.94858	1810
498.46478	1909
498.98096	2072
499.49713	2164
500.01331	2147
500.52945	2281
501.04562	2452
501.56174	2602
502.07788	2795
502.59399	3151
503.11011	3403
503.62622	3654
504.1423	4058
504.65839	4450
505.17447	4919
505.69052	5306
506.20657	6047
506.72263	6757
507.23865	7454
507.75467	8266
508.27069	9160
508.78668	10261
509.30267	11256
509.81866	12180
510.33463	13245
510.85059	14521
511.36655	15305
511.88248	16296
512.39844	17228
512.91437	18133
513.43024	18293
513.94617	19005
514.46204	19877
514.97791	20147
515.49377	20060
516.00964	20275
516.52551	20482
517.04132	20252
517.55719	19887
518.073	19591
518.58881	19324
519.10461	19199
519.62036	18889
520.13617	17950
520.65192	17530
521.16766	16859
521.68341	15929
522.1991	15318
522.71484	14361
523.23053	13754
523.74622	12471
524.2619	11821
524.77759	10687
525.29327	9813
525.8089	8517
526.32452	7825
526.84015	6956
527.35577	6193
527.8714	5389
528.38696	4891
528.90259	4201
529.41815	3844
529.93372	3312
530.44922	3006
530.96478	2791
531.48029	2651
531.99579	2612
532.51129	2450
533.02679	2454
533.5423	2412
534.05774	2349
534.57318	2200
535.08862	2323
535.60406	2291
536.11945	2231
536.63489	2283
537.15027	2203
537.66565	2070
538.18097	2037
538.69635	2017
539.21167	1954
539.72699	1893
540.24231	1894
540.75763	1922
541.27289	1847
541.78821	1832
542.30347	1792
542.81873	1761
543.33392	1674
543.84918	1760
544.36438	1603
544.87958	1576
545.39478	1659
545.90991	1565
546.42511	1491
546.94025	1530
547.45538	1465
547.97052	1497
548.4856	1495
549.00073	1469
549.51581	1461
550.03088	1429
550.5459	1316
551.06097	1432
551.57599	1285
552.091	1336
552.60602	1354
553.12097	1344
553.63593	1293
554.15094	1324
554.66583	1339
555.18079	1240
555.69568	1264
556.21063	1251
556.72552	1218
557.24036	1225
557.75525	1282
558.27008	1238
558.78491	1211
559.29974	1191
559.81458	1171
560.32935	1221
560.84412	1116
561.35889	1235
561.87366	1154
562.38837	1129
562.90308	1116
563.41779	1108
563.9325	1165
564.44714	1183
564.96179	1072
565.47644	1138
565.99109	1184
566.50574	1059
567.02032	1105
567.53491	1101
568.0495	1090
568.56403	1092
569.07861	1080
569.59314	1137
570.1076	1008
570.62213	1016
571.1366	1091
571.65106	1096
572.16553	984
572.67999	1010
573.1944	1034
573.7088	985
574.22321	999
574.73755	1027
575.25195	989
575.7663	1015
576.28058	1005
576.79492	1015
577.3092	965
577.82349	952
578.33777	863
578.85205	901
579.36627	878
579.88049	958
580.39471	874
580.90887	880
581.42303	916
581.93719	915
582.45135	901
582.96545	876
583.47955	856
583.99365	846
584.50775	832
585.02179	836
585.53583	806
586.04987	876
586.5639	849
587.07788	840
587.59186	833
588.10583	815
588.61975	823
589.13373	772
589.64758	834
590.1615	812
590.67542	791
591.18927	720
591.70306	759
592.21692	769
592.73071	756
593.24451	782
593.7583	790
594.27209	724
594.78583	769
595.29956	715
595.81323	751
596.32697	707
596.84064	729
597.35425	728
597.86792	716
598.38153	666
598.89514	780
599.40875	744
599.9223	717
600.43585	697
600.9494	715
601.46289	671
601.97638	679
602.48987	671
603.00336	683
603.51678	643
604.03021	656
604.54364	687
605.05701	669
605.57043	695
606.08374	648
606.59711	661
607.11041	672
607.62372	646
608.13702	707
608.65027	634
609.16351	671
609.67676	657
610.19	683
610.70319	645
611.21637	620
611.72949	635
612.24268	597
612.75574	626
613.26886	622
613.78192	613
614.29504	597
614.80804	604
615.32111	627
615.83411	609
616.34711	623
616.86005	606
617.37299	571
617.88593	569
618.39886	580
618.91174	565
619.42462	577
619.9375	580
620.45032	572
620.96313	564
621.47595	557
621.98871	580
622.50146	543
623.01422	540
623.52692	563
624.03967	526
624.55231	547
625.065	542
625.57764	561
626.09027	562
626.60284	512
627.11542	574
627.62799	546
628.14056	541
628.65308	516
629.16559	474
629.6781	483
630.19055	527
630.703	504
631.21539	504
631.72784	511
632.24017	506
632.75256	516
633.26489	531
633.77722	493
634.28955	524
634.80182	529
635.31409	500
635.82635	450
636.33856	498
636.85077	533
637.36292	497
637.87512	468
638.38721	483
638.89935	476
639.41144	498
639.92352	499
640.43561	461
640.94763	479
641.45966	456
641.97162	460
642.48358	484
642.99554	461
643.50751	428
644.01941	448
644.53131	473
645.04315	459
645.55499	475
646.06683	451
646.57861	435
647.09045	435
647.60217	495
648.11395	481
648.62567	461
649.13733	484
649.64905	460
650.16064	425
650.6723	447
651.1839	428
651.6955	445
652.20709	421
652.71863	433
653.23016	412
653.74164	440
654.25311	415
654.76459	431
655.276	454
655.78741	431
656.29883	403
656.81018	391
657.32153	413
657.83289	420
658.34418	416
658.85547	443
659.3667	413
659.87793	394
660.38916	438
660.90033	407
661.4115	394
661.92267	381
662.43378	416
662.94489	384
663.45593	405
663.96698	395
664.47803	410
664.98907	375
665.50006	423
666.01099	402
666.52191	413
667.03284	391
667.54376	389
668.05463	388
668.56549	396
669.07629	414
669.5871	384
670.0979	385
670.60864	403
671.11938	380
671.63007	394
672.14075	420
672.65143	360
673.16205	381
673.67267	363
674.18329	388
674.69385	380
675.20435	405
675.7149	370
676.2254	399
676.73584	378
677.24628	359
677.75671	348
678.26715	363
678.77753	382
679.28784	388
679.79822	374
680.30847	372
680.81879	363
681.32904	369
681.83923	389
682.34949	353
682.85968	363
683.36981	369
683.87994	351
684.39008	366
684.90015	369
685.41022	350
685.92023	353
686.43024	370
686.94025	363
687.4502	352
687.96014	339
688.47003	352
688.97992	373
689.48981	372
689.99963	364
690.50946	361
691.01923	362
691.52899	354
692.03876	377
692.54846	343
693.05817	326
693.56781	368
694.07745	361
694.58704	360
695.09662	351
695.6062	356
696.11572	346
696.62524	356
697.1347	322
697.64417	366
698.15363	333
698.66302	345
699.17242	349
699.68176	346
700.1911	338
700.70044	345
701.20972	355
701.71893	322
702.22815	325
702.73737	358
703.24652	334
703.75568	336
704.26483	342
704.77393	364
705.28302	347
705.79205	329
706.30103	350
706.81006	325
707.31903	347
707.82794	339
708.33685	324
708.84576	332
709.35461	354
709.86346	328
710.37225	343
710.88104	352
711.38977	335
711.8985	310
712.40723	338
712.91589	338
713.42456	314
713.93317	324
714.44177	337
714.95032	322
715.45886	347
715.96735	334
716.47583	330
716.98431	321
717.49274	350
718.00116	334
718.50952	343
719.01788	332
719.52618	318
720.03448	335
720.54272	324
721.05096	330
721.5592	332
722.06738	336
722.57556	351
723.08368	309
723.59174	327
724.09985	331
724.60791	350
725.11591	345
725.6239	332
726.13184	330
726.63977	303
727.14771	327
727.65558	325
728.16339	322
728.67126	340
729.17902	338
729.68683	312
730.19452	330
730.70227	322
731.2099	322
731.71759	314
732.22522	324
732.73279	340
733.24036	359
733.74792	309
734.25543	334
734.76288	339
735.27032	333
735.77777	319
736.28516	337
736.79254	329
737.29987	331
737.80719	356
738.31445	348
738.82172	349
739.32892	302
739.83612	314
740.34326	328
740.8504	310
741.35748	303
741.86456	341
742.37164	316
742.87866	344
743.38562	332
743.89258	333
744.39954	320
744.90643	299
745.41327	312
745.9201	340
746.42694	315
746.93372	325
747.44049	319
747.9472	325
748.45386	324
748.96057	325
749.46716	324
749.97375	332
750.48035	315
750.98688	295
751.49341	327
751.99988	334
752.50635	298
753.01276	316
753.51917	305
754.02551	323
754.53186	333
755.03815	310
755.54443	314
756.05066	287
756.55688	322
757.06305	303
757.56921	309
758.07532	305
758.58142	333
759.08746	320
759.59351	307
760.09949	335
760.60547	310
761.11139	329
761.61725	328
762.12317	333
762.62897	338
763.13483	322
763.64056	334
764.1463	325
764.65204	336
765.15771	325
765.66339	315
766.16901	315
766.67462	314
767.18018	309
767.68567	333
768.19116	331
768.69666	304
769.20209	322
769.70746	326
770.21283	314
770.7182	333
771.22351	312
771.72876	341
772.23401	299
772.73926	327
773.24445	314
773.74957	343
774.2547	326
774.75977	309
775.26483	311
775.76984	306
776.27484	327
776.77979	312
777.28473	317
777.78961	344
778.29449	325
778.79932	313
779.30408	302
779.80884	311
780.3136	322
780.8183	307
781.32294	314
781.82758	332
782.33215	329
782.83673	331
783.34131	327
783.84576	300
784.35028	311
784.85468	318
785.35907	323
785.86346	314
786.3678	329
786.87213	319
787.3764	311
787.88062	318
788.38483	338
788.88898	325
789.39313	314
789.89722	322
790.40131	329
790.90533	309
791.40936	299
791.91333	311
792.4173	296
792.9212	306
793.42505	310
793.92889	298
794.43268	322
794.93646	310
795.44019	317
795.94391	312
796.44757	315
796.95123	309
797.45483	339
797.95837	320
798.46191	309
798.96539	305
799.46887	315
799.97235	305
800.47571	313
800.97906	313
801.48242	314
801.98572	306
802.48895	342
802.99219	312
803.49536	302
803.99854	326
804.50165	316
805.00476	283
805.50781	300
806.01086	314
806.51379	301
807.01678	305
807.51971	306
808.02258	309
808.52539	332
809.02826	323
809.53101	322
810.03375	326
810.53644	321
811.03912	321
811.54175	299
812.04437	323
812.54694	283
813.04944	309
813.55194	308
814.05444	309
814.55682	281
815.05927	295
815.56158	296
816.0639	325
816.56622	319
817.06842	324
817.57068	316
818.07281	297
818.57495	320
819.07709	317
819.57916	310
820.08118	300
820.58319	323
821.08514	311
821.5871	307
822.08899	298
822.59082	309
823.09265	292
823.59442	318
824.09619	302
824.5979	323
825.09955	309
825.6012	295
826.10278	306
826.60437	299
827.1059	309
827.60736	305
828.10883	312
828.61023	306
829.11163	325
829.61298	308
830.11432	303
830.61554	311
831.11682	317
831.61798	308
832.11914	323
832.6203	303
833.1214	334
833.62244	302
834.12347	309
834.62445	316
835.12537	311
835.62628	305
836.12714	319
836.62799	320
837.12878	325
837.62952	305
838.13025	304
838.63092	316
839.13153	314
839.63214	325
840.13275	313
840.63324	322
841.13373	320
841.63422	292
842.13464	305
842.63501	322
843.13538	288
843.63568	303
844.13593	285
844.63617	314
845.13635	324
845.63647	306
846.1366	312
846.63672	310
847.13672	301
847.63672	314
848.13672	320
848.6366	318
849.13647	317
849.63635	296
850.13617	318
850.63593	331
851.13568	293
851.63538	310
852.13501	305
852.63464	298
853.13422	311
853.63373	317
854.13324	302
854.63275	317
855.13214	318
855.63153	304
856.13086	313
856.63019	313
857.12946	314
857.62866	312
858.12787	307
858.62701	312
859.12616	309
859.62524	297
860.12427	296
860.62323	292
861.12219	298
861.62109	323
862.12	323
862.61884	329
863.11761	317
863.61639	313
864.11511	308
864.61377	307
865.11243	318
865.61102	305
866.10962	343
866.60809	297
867.10663	293
867.60504	323
868.10345	296
868.60181	321
869.10016	282
869.59839	320
870.09668	306
870.59485	330
871.09302	312
871.59113	312
872.08923	320
872.58728	298
873.08527	306
873.58325	325
874.08118	309
874.57904	311
875.0769	339
875.57465	307
876.07245	310
876.57013	326
877.06781	303
877.56549	327
878.06305	309
878.56061	340
879.05817	317
879.5556	325
880.05304	330
880.55042	341
881.04779	312
881.5451	306
882.04236	299
882.53961	324
883.0368	349
883.53394	324
884.03107	324
884.52808	329
885.02515	321
