Date and Time:                Sun Nov 2 14:32:11.553 2025
Software Version:             4.30.30000.0
Temperature (C):              -90
Model:                        DU971P_UVB
Data Type:                    Counts
Acquisition Mode:             Single Scan
Trigger Mode:                 Internal
Exposure Time (secs):         0.5
Readout Mode:                 Full Vertical Binning
Horizontal binning:           2
Extended Dynamic Range:       off
Horizontally flipped:         false
Vertical Shift Speed (usecs): 9.68
Pixel Readout Rate (MHz):     3
Baseline Clamp:               ON
Clock Amplitude:              Normal
Output Amplifier:             Conventional
Serial Number:                20367
Pre-Amplifier Gain:           4x
Spurious Noise Filter Mode:   No Filter
Photon counted:               false
Data Averaging Filter Mode:   No Filter
SR193i:
Serial Number:                SR-2646
Wavelength (nm):              690
Grating Groove Density (l/mm):300
Grating Blaze:                500nm
Input Side Slit Width (um):   1000



478.32681	277
478.84332	317
479.35983	306
479.87631	321
480.39282	303
480.9093	300
481.42575	320
481.94223	338
482.45868	333
482.97513	312
483.49158	348
484.00803	372
484.52444	420
485.04086	434
485.55728	491
486.07367	521
486.59006	591
487.10645	636
487.62283	657
488.13919	692
488.65555	810
489.17191	836
489.68826	892
490.20459	935
490.72092	1027
491.23724	1062
491.75354	1054
492.26984	1109
492.78613	1178
493.30243	1223
493.8187	1304
494.33496	1286
494.85123	1378
495.36746	1475
495.8837	1546
496.39993	1643
496.91617	1586
497.43237	1711
497.94858	1833
498.46478	1969
498.98096	2027
499.49713	2114
500.01331	2217
500.52945	2273
501.04562	2419
501.56174	2555
502.07788	2787
502.59399	3089
503.11011	3281
503.62622	3653
504.1423	4012
504.65839	4438
505.17447	4883
505.69052	5578
506.20657	5957
506.72263	6596
507.23865	7705
507.75467	8226
508.27069	9083
508.78668	10209
509.30267	11036
509.81866	12322
510.33463	13491
510.85059	14471
511.36655	15197
511.88248	16533
512.39844	17385
512.91437	17906
513.43024	18687
513.94617	19065
514.46204	19518
514.97791	19929
515.49377	19958
516.00964	20413
516.52551	20191
517.04132	20251
517.55719	20074
518.073	19843
518.58881	19173
519.10461	19186
519.62036	18697
520.13617	18254
520.65192	17576
521.16766	17094
521.68341	16054
522.1991	15357
522.71484	14650
523.23053	13699
523.74622	12652
524.2619	11826
524.77759	10513
525.29327	9669
525.8089	8598
526.32452	7801
526.84015	6867
527.35577	6027
527.8714	5398
528.38696	4621
528.90259	4210
529.41815	3767
529.93372	3366
530.44922	3115
530.96478	2767
531.48029	2688
531.99579	2610
532.51129	2464
533.02679	2446
533.5423	2433
534.05774	2263
534.57318	2253
535.08862	2230
535.60406	2136
536.11945	2270
536.63489	2220
537.15027	2103
537.66565	2158
538.18097	2057
538.69635	1990
539.21167	2025
539.72699	1945
540.24231	1910
540.75763	1824
541.27289	1848
541.78821	1743
542.30347	1806
542.81873	1727
543.33392	1678
543.84918	1724
544.36438	1619
544.87958	1566
545.39478	1570
545.90991	1527
546.42511	1466
546.94025	1542
547.45538	1504
547.97052	1462
548.4856	1423
549.00073	1486
549.51581	1429
550.03088	1383
550.5459	1413
551.06097	1404
551.57599	1386
552.091	1384
552.60602	1321
553.12097	1291
553.63593	1204
554.15094	1278
554.66583	1339
555.18079	1282
555.69568	1370
556.21063	1281
556.72552	1233
557.24036	1276
557.75525	1252
558.27008	1273
558.78491	1241
559.29974	1215
559.81458	1219
560.32935	1152
560.84412	1228
561.35889	1197
561.87366	1187
562.38837	1168
562.90308	1147
563.41779	1205
563.9325	1083
564.44714	1115
564.96179	1133
565.47644	1087
565.99109	1101
566.50574	1162
567.02032	1073
567.53491	1112
568.0495	1064
568.56403	1150
569.07861	1074
569.59314	1129
570.1076	993
570.62213	1065
571.1366	1079
571.65106	1057
572.16553	1085
572.67999	1034
573.1944	1007
573.7088	1020
574.22321	1000
574.73755	970
575.25195	955
575.7663	979
576.28058	1002
576.79492	966
577.3092	971
577.82349	940
578.33777	902
578.85205	909
579.36627	968
579.88049	932
580.39471	913
580.90887	931
581.42303	893
581.93719	922
582.45135	881
582.96545	882
583.47955	772
583.99365	898
584.50775	808
585.02179	833
585.53583	809
586.04987	847
586.5639	866
587.07788	802
587.59186	826
588.10583	791
588.61975	857
589.13373	829
589.64758	822
590.1615	803
590.67542	748
591.18927	755
591.70306	801
592.21692	804
592.73071	774
593.24451	750
593.7583	772
594.27209	808
594.78583	751
595.29956	709
595.81323	777
596.32697	714
596.84064	734
597.35425	722
597.86792	737
598.38153	693
598.89514	747
599.40875	718
599.9223	691
600.43585	704
600.9494	694
601.46289	667
601.97638	751
602.48987	691
603.00336	675
603.51678	674
604.03021	703
604.54364	648
605.05701	675
605.57043	650
606.08374	687
606.59711	648
607.11041	670
607.62372	626
608.13702	611
608.65027	603
609.16351	604
609.67676	603
610.19	600
610.70319	602
611.21637	599
611.72949	628
612.24268	623
612.75574	591
613.26886	621
613.78192	630
614.29504	617
614.80804	579
615.32111	600
615.83411	597
616.34711	575
616.86005	586
617.37299	579
617.88593	578
618.39886	574
618.91174	584
619.42462	585
619.9375	570
620.45032	540
620.96313	594
621.47595	583
621.98871	570
622.50146	596
623.01422	592
623.52692	553
624.03967	528
624.55231	522
625.065	552
625.57764	538
626.09027	547
626.60284	546
627.11542	544
627.62799	503
628.14056	560
628.65308	553
629.16559	562
629.6781	528
630.19055	529
630.703	533
631.21539	543
631.72784	529
632.24017	537
632.75256	505
633.26489	522
633.77722	542
634.28955	516
634.80182	483
635.31409	508
635.82635	534
636.33856	480
636.85077	508
637.36292	518
637.87512	521
638.38721	498
638.89935	505
639.41144	483
639.92352	495
640.43561	477
640.94763	468
641.45966	452
641.97162	486
642.48358	442
642.99554	488
643.50751	455
644.01941	501
644.53131	486
645.04315	415
645.55499	419
646.06683	468
646.57861	423
647.09045	446
647.60217	440
648.11395	425
648.62567	427
649.13733	441
649.64905	429
650.16064	438
650.6723	423
651.1839	435
651.6955	438
652.20709	432
652.71863	449
653.23016	460
653.74164	417
654.25311	433
654.76459	429
655.276	423
655.78741	414
656.29883	455
656.81018	433
657.32153	406
657.83289	407
658.34418	422
658.85547	437
659.3667	392
659.87793	412
660.38916	415
660.90033	412
661.4115	410
661.92267	404
662.43378	400
662.94489	401
663.45593	413
663.96698	437
664.47803	413
664.98907	391
665.50006	402
666.01099	388
666.52191	394
667.03284	396
667.54376	388
668.05463	390
668.56549	420
669.07629	360
669.5871	370
670.0979	370
670.60864	360
671.11938	398
671.63007	382
672.14075	378
672.65143	387
673.16205	371
673.67267	397
674.18329	386
674.69385	359
675.20435	373
675.7149	354
676.2254	368
676.73584	380
677.24628	388
677.75671	382
678.26715	370
678.77753	382
679.28784	379
679.79822	380
680.30847	358
680.81879	378
681.32904	359
681.83923	407
682.34949	383
682.85968	376
683.36981	363
683.87994	380
684.39008	382
684.90015	375
685.41022	353
685.92023	382
686.43024	353
686.94025	379
687.4502	372
687.96014	358
688.47003	351
688.97992	351
689.48981	316
689.99963	356
690.50946	364
691.01923	344
691.52899	337
692.03876	341
692.54846	351
693.05817	353
693.56781	358
694.07745	362
694.58704	357
695.09662	359
695.6062	366
696.11572	356
696.62524	353
697.1347	371
697.64417	348
698.15363	350
698.66302	340
699.17242	360
699.68176	348
700.1911	324
700.70044	344
701.20972	355
701.71893	350
702.22815	337
702.73737	346
703.24652	339
703.75568	349
704.26483	347
704.77393	359
705.28302	349
705.79205	335
706.30103	336
706.81006	345
707.31903	358
707.82794	362
708.33685	333
708.84576	360
709.35461	348
709.86346	354
710.37225	324
710.88104	343
711.38977	343
711.8985	362
712.40723	314
712.91589	326
713.42456	364
713.93317	345
714.44177	325
714.95032	343
715.45886	314
715.96735	334
716.47583	321
716.98431	326
717.49274	341
718.00116	344
718.50952	339
719.01788	347
719.52618	356
720.03448	332
720.54272	312
721.05096	331
721.5592	321
722.06738	351
722.57556	344
723.08368	338
723.59174	328
724.09985	353
724.60791	321
725.11591	342
725.6239	317
726.13184	345
726.63977	331
727.14771	344
727.65558	328
728.16339	326
728.67126	325
729.17902	325
729.68683	327
730.19452	320
730.70227	329
731.2099	311
731.71759	332
732.22522	335
732.73279	331
733.24036	341
733.74792	341
734.25543	314
734.76288	336
735.27032	353
735.77777	327
736.28516	319
736.79254	321
737.29987	311
737.80719	333
738.31445	340
738.82172	310
739.32892	306
739.83612	332
740.34326	348
740.8504	315
741.35748	320
741.86456	340
742.37164	343
742.87866	324
743.38562	325
743.89258	329
744.39954	322
744.90643	317
745.41327	341
745.9201	306
746.42694	328
746.93372	330
747.44049	307
747.9472	337
748.45386	334
748.96057	336
749.46716	310
749.97375	331
750.48035	321
750.98688	314
751.49341	310
751.99988	313
752.50635	329
753.01276	323
753.51917	333
754.02551	334
754.53186	330
755.03815	313
755.54443	318
756.05066	306
756.55688	315
757.06305	318
757.56921	326
758.07532	321
758.58142	309
759.08746	304
759.59351	315
760.09949	320
760.60547	330
761.11139	323
761.61725	319
762.12317	318
762.62897	336
763.13483	336
763.64056	311
764.1463	308
764.65204	308
765.15771	335
765.66339	326
766.16901	337
766.67462	317
767.18018	332
767.68567	339
768.19116	318
768.69666	308
769.20209	327
769.70746	317
770.21283	283
770.7182	309
771.22351	318
771.72876	295
772.23401	318
772.73926	327
773.24445	311
773.74957	322
774.2547	321
774.75977	309
775.26483	320
775.76984	307
776.27484	309
776.77979	329
777.28473	310
777.78961	324
778.29449	319
778.79932	329
779.30408	312
779.80884	315
780.3136	311
780.8183	332
781.32294	330
781.82758	322
782.33215	311
782.83673	317
783.34131	312
783.84576	322
784.35028	300
784.85468	315
785.35907	303
785.86346	314
786.3678	333
786.87213	323
787.3764	321
787.88062	285
788.38483	329
788.88898	305
789.39313	303
789.89722	307
790.40131	313
790.90533	311
791.40936	328
791.91333	311
792.4173	325
792.9212	329
793.42505	315
793.92889	306
794.43268	312
794.93646	329
795.44019	284
795.94391	325
796.44757	319
796.95123	323
797.45483	327
797.95837	330
798.46191	309
798.96539	321
799.46887	312
799.97235	318
800.47571	328
800.97906	301
801.48242	331
801.98572	334
802.48895	303
802.99219	302
803.49536	316
803.99854	327
804.50165	323
805.00476	314
805.50781	312
806.01086	292
806.51379	301
807.01678	299
807.51971	305
808.02258	323
808.52539	303
809.02826	312
809.53101	309
810.03375	300
810.53644	309
811.03912	312
811.54175	314
812.04437	300
812.54694	328
813.04944	343
813.55194	327
814.05444	310
814.55682	314
815.05927	301
815.56158	307
816.0639	304
816.56622	286
817.06842	301
817.57068	310
818.07281	323
818.57495	302
819.07709	327
819.57916	292
820.08118	307
820.58319	296
821.08514	303
821.5871	325
822.08899	330
822.59082	312
823.09265	300
823.59442	294
824.09619	307
824.5979	283
825.09955	326
825.6012	335
826.10278	306
826.60437	302
827.1059	321
827.60736	315
828.10883	301
828.61023	307
829.11163	323
829.61298	319
830.11432	301
830.61554	327
831.11682	324
831.61798	301
832.11914	301
832.6203	320
833.1214	325
833.62244	313
834.12347	297
834.62445	307
835.12537	324
835.62628	315
836.12714	318
836.62799	310
837.12878	308
837.62952	320
838.13025	323
838.63092	328
839.13153	306
839.63214	329
840.13275	330
840.63324	314
841.13373	298
841.63422	325
842.13464	307
842.63501	317
843.13538	309
843.63568	294
844.13593	304
844.63617	321
845.13635	321
845.63647	311
846.1366	304
846.63672	307
847.13672	301
847.63672	302
848.13672	325
848.6366	314
849.13647	313
849.63635	316
850.13617	332
850.63593	316
851.13568	320
851.63538	316
852.13501	332
852.63464	321
853.13422	337
853.63373	307
854.13324	326
854.63275	321
855.13214	307
855.63153	312
856.13086	285
856.63019	301
857.12946	327
857.62866	326
858.12787	296
858.62701	304
859.12616	329
859.62524	303
860.12427	301
860.62323	333
861.12219	309
861.62109	314
862.12	317
862.61884	321
863.11761	332
863.61639	301
864.11511	302
864.61377	329
865.11243	304
865.61102	322
866.10962	294
866.60809	318
867.10663	305
867.60504	301
868.10345	297
868.60181	312
869.10016	320
869.59839	304
870.09668	311
870.59485	307
871.09302	317
871.59113	318
872.08923	304
872.58728	294
873.08527	327
873.58325	326
874.08118	326
874.57904	308
875.0769	335
875.57465	321
876.07245	342
876.57013	310
877.06781	321
877.56549	311
878.06305	313
878.56061	323
879.05817	309
879.5556	329
880.05304	331
880.55042	319
881.04779	330
881.5451	311
882.04236	320
882.53961	319
883.0368	326
883.53394	317
884.03107	327
884.52808	302
885.02515	307
