Date and Time:                Sun Nov 2 14:21:36.388 2025
Software Version:             4.30.30000.0
Temperature (C):              -90
Model:                        DU971P_UVB
Data Type:                    Counts
Acquisition Mode:             Single Scan
Trigger Mode:                 Internal
Exposure Time (secs):         30
Readout Mode:                 Full Vertical Binning
Horizontal binning:           2
Extended Dynamic Range:       off
Horizontally flipped:         false
Vertical Shift Speed (usecs): 9.68
Pixel Readout Rate (MHz):     3
Baseline Clamp:               ON
Clock Amplitude:              Normal
Output Amplifier:             Conventional
Serial Number:                20367
Pre-Amplifier Gain:           4x
Spurious Noise Filter Mode:   No Filter
Photon counted:               false
Data Averaging Filter Mode:   No Filter
SR193i:
Serial Number:                SR-2646
Wavelength (nm):              690
Grating Groove Density (l/mm):300
Grating Blaze:                500nm
Input Side Slit Width (um):   1000



478.32681	261
478.84332	331
479.35983	325
479.87631	325
480.39282	327
480.9093	339
481.42575	303
481.94223	350
482.45868	342
482.97513	344
483.49158	330
484.00803	311
484.52444	328
485.04086	329
485.55728	325
486.07367	334
486.59006	321
487.10645	339
487.62283	332
488.13919	331
488.65555	319
489.17191	331
489.68826	326
490.20459	327
490.72092	339
491.23724	337
491.75354	323
492.26984	345
492.78613	328
493.30243	337
493.8187	335
494.33496	350
494.85123	367
495.36746	334
495.8837	351
496.39993	353
496.91617	365
497.43237	344
497.94858	347
498.46478	345
498.98096	364
499.49713	359
500.01331	344
500.52945	328
501.04562	372
501.56174	365
502.07788	340
502.59399	375
503.11011	372
503.62622	329
504.1423	374
504.65839	352
505.17447	372
505.69052	359
506.20657	357
506.72263	358
507.23865	372
507.75467	350
508.27069	382
508.78668	377
509.30267	352
509.81866	340
510.33463	346
510.85059	353
511.36655	346
511.88248	361
512.39844	361
512.91437	359
513.43024	350
513.94617	363
514.46204	365
514.97791	346
515.49377	336
516.00964	366
516.52551	368
517.04132	343
517.55719	336
518.073	358
518.58881	342
519.10461	340
519.62036	381
520.13617	359
520.65192	341
521.16766	366
521.68341	349
522.1991	335
522.71484	337
523.23053	364
523.74622	351
524.2619	348
524.77759	353
525.29327	350
525.8089	333
526.32452	362
526.84015	364
527.35577	361
527.8714	346
528.38696	349
528.90259	360
529.41815	371
529.93372	346
530.44922	328
530.96478	342
531.48029	330
531.99579	354
532.51129	346
533.02679	353
533.5423	368
534.05774	340
534.57318	331
535.08862	338
535.60406	369
536.11945	355
536.63489	353
537.15027	343
537.66565	351
538.18097	397
538.69635	359
539.21167	359
539.72699	320
540.24231	351
540.75763	364
541.27289	349
541.78821	340
542.30347	368
542.81873	391
543.33392	345
543.84918	362
544.36438	346
544.87958	363
545.39478	323
545.90991	361
546.42511	359
546.94025	345
547.45538	353
547.97052	334
548.4856	351
549.00073	362
549.51581	335
550.03088	344
550.5459	332
551.06097	357
551.57599	373
552.091	354
552.60602	334
553.12097	361
553.63593	342
554.15094	326
554.66583	361
555.18079	326
555.69568	347
556.21063	350
556.72552	341
557.24036	354
557.75525	326
558.27008	345
558.78491	328
559.29974	353
559.81458	338
560.32935	345
560.84412	342
561.35889	334
561.87366	373
562.38837	325
562.90308	335
563.41779	344
563.9325	317
564.44714	327
564.96179	327
565.47644	339
565.99109	343
566.50574	349
567.02032	349
567.53491	329
568.0495	349
568.56403	330
569.07861	341
569.59314	335
570.1076	332
570.62213	357
571.1366	334
571.65106	340
572.16553	316
572.67999	323
573.1944	359
573.7088	345
574.22321	323
574.73755	353
575.25195	321
575.7663	324
576.28058	326
576.79492	341
577.3092	332
577.82349	329
578.33777	349
578.85205	352
579.36627	331
579.88049	329
580.39471	333
580.90887	352
581.42303	341
581.93719	325
582.45135	369
582.96545	347
583.47955	356
583.99365	332
584.50775	323
585.02179	330
585.53583	317
586.04987	323
586.5639	324
587.07788	356
587.59186	334
588.10583	354
588.61975	327
589.13373	328
589.64758	347
590.1615	310
590.67542	325
591.18927	333
591.70306	327
592.21692	334
592.73071	350
593.24451	307
593.7583	328
594.27209	343
594.78583	339
595.29956	343
595.81323	322
596.32697	329
596.84064	333
597.35425	324
597.86792	342
598.38153	341
598.89514	323
599.40875	340
599.9223	314
600.43585	324
600.9494	333
601.46289	334
601.97638	341
602.48987	314
603.00336	343
603.51678	339
604.03021	335
604.54364	319
605.05701	328
605.57043	328
606.08374	322
606.59711	319
607.11041	313
607.62372	315
608.13702	330
608.65027	302
609.16351	327
609.67676	326
610.19	327
610.70319	319
611.21637	317
611.72949	337
612.24268	330
612.75574	311
613.26886	347
613.78192	331
614.29504	361
614.80804	323
615.32111	345
615.83411	338
616.34711	323
616.86005	335
617.37299	343
617.88593	325
618.39886	343
618.91174	313
619.42462	327
619.9375	320
620.45032	307
620.96313	310
621.47595	332
621.98871	333
622.50146	330
623.01422	321
623.52692	327
624.03967	330
624.55231	331
625.065	327
625.57764	338
626.09027	342
626.60284	332
627.11542	317
627.62799	342
628.14056	343
628.65308	309
629.16559	327
629.6781	323
630.19055	342
630.703	321
631.21539	325
631.72784	335
632.24017	323
632.75256	338
633.26489	303
633.77722	331
634.28955	308
634.80182	318
635.31409	335
635.82635	329
636.33856	315
636.85077	330
637.36292	359
637.87512	326
638.38721	315
638.89935	335
639.41144	324
639.92352	348
640.43561	327
640.94763	326
641.45966	322
641.97162	305
642.48358	339
642.99554	322
643.50751	333
644.01941	336
644.53131	330
645.04315	304
645.55499	314
646.06683	322
646.57861	337
647.09045	295
647.60217	313
648.11395	316
648.62567	326
649.13733	326
649.64905	347
650.16064	340
650.6723	330
651.1839	329
651.6955	336
652.20709	315
652.71863	346
653.23016	319
653.74164	325
654.25311	334
654.76459	310
655.276	322
655.78741	354
656.29883	308
656.81018	323
657.32153	304
657.83289	323
658.34418	320
658.85547	331
659.3667	313
659.87793	311
660.38916	316
660.90033	312
661.4115	335
661.92267	331
662.43378	329
662.94489	341
663.45593	327
663.96698	343
664.47803	304
664.98907	318
665.50006	322
666.01099	346
666.52191	330
667.03284	325
667.54376	319
668.05463	349
668.56549	335
669.07629	316
669.5871	336
670.0979	321
670.60864	319
671.11938	331
671.63007	322
672.14075	324
672.65143	339
673.16205	311
673.67267	331
674.18329	329
674.69385	331
675.20435	312
675.7149	301
676.2254	307
676.73584	326
677.24628	309
677.75671	318
678.26715	335
678.77753	337
679.28784	324
679.79822	340
680.30847	327
680.81879	319
681.32904	325
681.83923	330
682.34949	327
682.85968	329
683.36981	332
683.87994	318
684.39008	297
684.90015	338
685.41022	323
685.92023	300
686.43024	337
686.94025	324
687.4502	312
687.96014	323
688.47003	331
688.97992	319
689.48981	309
689.99963	332
690.50946	307
691.01923	308
691.52899	315
692.03876	352
692.54846	305
693.05817	335
693.56781	327
694.07745	302
694.58704	324
695.09662	301
695.6062	305
696.11572	303
696.62524	328
697.1347	318
697.64417	321
698.15363	336
698.66302	326
699.17242	297
699.68176	316
700.1911	329
700.70044	308
701.20972	312
701.71893	315
702.22815	339
702.73737	304
703.24652	315
703.75568	321
704.26483	311
704.77393	336
705.28302	309
705.79205	302
706.30103	315
706.81006	305
707.31903	316
707.82794	313
708.33685	323
708.84576	313
709.35461	292
709.86346	313
710.37225	325
710.88104	318
711.38977	310
711.8985	307
712.40723	309
712.91589	328
713.42456	310
713.93317	322
714.44177	318
714.95032	324
715.45886	329
715.96735	321
716.47583	314
716.98431	327
717.49274	310
718.00116	341
718.50952	313
719.01788	315
719.52618	318
720.03448	307
720.54272	288
721.05096	326
721.5592	304
722.06738	331
722.57556	332
723.08368	316
723.59174	304
724.09985	309
724.60791	332
725.11591	313
725.6239	301
726.13184	297
726.63977	328
727.14771	333
727.65558	309
728.16339	341
728.67126	314
729.17902	323
729.68683	305
730.19452	332
730.70227	305
731.2099	315
731.71759	328
732.22522	313
732.73279	331
733.24036	317
733.74792	314
734.25543	312
734.76288	320
735.27032	291
735.77777	297
736.28516	294
736.79254	324
737.29987	329
737.80719	315
738.31445	308
738.82172	307
739.32892	317
739.83612	315
740.34326	321
740.8504	321
741.35748	336
741.86456	338
742.37164	338
742.87866	318
743.38562	318
743.89258	315
744.39954	337
744.90643	300
745.41327	325
745.9201	313
746.42694	332
746.93372	317
747.44049	305
747.9472	314
748.45386	308
748.96057	303
749.46716	318
749.97375	320
750.48035	318
750.98688	312
751.49341	290
751.99988	320
752.50635	322
753.01276	306
753.51917	320
754.02551	326
754.53186	329
755.03815	317
755.54443	298
756.05066	319
756.55688	297
757.06305	318
757.56921	307
758.07532	318
758.58142	338
759.08746	312
759.59351	329
760.09949	301
760.60547	327
761.11139	318
761.61725	314
762.12317	316
762.62897	330
763.13483	320
763.64056	321
764.1463	329
764.65204	310
765.15771	314
765.66339	298
766.16901	297
766.67462	327
767.18018	314
767.68567	312
768.19116	334
768.69666	313
769.20209	302
769.70746	332
770.21283	315
770.7182	315
771.22351	315
771.72876	299
772.23401	324
772.73926	303
773.24445	294
773.74957	309
774.2547	315
774.75977	312
775.26483	318
775.76984	326
776.27484	308
776.77979	295
777.28473	300
777.78961	313
778.29449	296
778.79932	315
779.30408	298
779.80884	340
780.3136	321
780.8183	322
781.32294	323
781.82758	308
782.33215	327
782.83673	328
783.34131	328
783.84576	317
784.35028	294
784.85468	311
785.35907	313
785.86346	292
786.3678	307
786.87213	315
787.3764	348
787.88062	326
788.38483	291
788.88898	311
789.39313	315
789.89722	320
790.40131	305
790.90533	328
791.40936	303
791.91333	307
792.4173	307
792.9212	316
793.42505	300
793.92889	295
794.43268	323
794.93646	346
795.44019	306
795.94391	326
796.44757	307
796.95123	317
797.45483	307
797.95837	313
798.46191	308
798.96539	319
799.46887	322
799.97235	321
800.47571	324
800.97906	300
801.48242	325
801.98572	321
802.48895	332
802.99219	326
803.49536	312
803.99854	322
804.50165	317
805.00476	339
805.50781	312
806.01086	326
806.51379	331
807.01678	319
807.51971	303
808.02258	318
808.52539	305
809.02826	315
809.53101	311
810.03375	4243
810.53644	3754
811.03912	300
811.54175	328
812.04437	323
812.54694	320
813.04944	316
813.55194	311
814.05444	325
814.55682	307
815.05927	322
815.56158	320
816.0639	330
816.56622	302
817.06842	338
817.57068	304
818.07281	327
818.57495	317
819.07709	320
819.57916	320
820.08118	331
820.58319	316
821.08514	324
821.5871	322
822.08899	319
822.59082	312
823.09265	332
823.59442	325
824.09619	288
824.5979	292
825.09955	322
825.6012	314
826.10278	320
826.60437	313
827.1059	309
827.60736	337
828.10883	296
828.61023	305
829.11163	328
829.61298	324
830.11432	310
830.61554	305
831.11682	311
831.61798	318
832.11914	300
832.6203	317
833.1214	319
833.62244	303
834.12347	325
834.62445	313
835.12537	325
835.62628	315
836.12714	292
836.62799	319
837.12878	294
837.62952	333
838.13025	315
838.63092	306
839.13153	324
839.63214	308
840.13275	312
840.63324	321
841.13373	315
841.63422	305
842.13464	308
842.63501	324
843.13538	336
843.63568	331
844.13593	308
844.63617	310
845.13635	308
845.63647	296
846.1366	304
846.63672	334
847.13672	318
847.63672	316
848.13672	308
848.6366	310
849.13647	325
849.63635	322
850.13617	320
850.63593	299
851.13568	319
851.63538	307
852.13501	305
852.63464	315
853.13422	319
853.63373	338
854.13324	319
854.63275	329
855.13214	318
855.63153	328
856.13086	304
856.63019	319
857.12946	321
857.62866	300
858.12787	330
858.62701	327
859.12616	324
859.62524	312
860.12427	329
860.62323	305
861.12219	315
861.62109	321
862.12	311
862.61884	308
863.11761	322
863.61639	303
864.11511	336
864.61377	312
865.11243	305
865.61102	321
866.10962	306
866.60809	314
867.10663	319
867.60504	328
868.10345	339
868.60181	315
869.10016	309
869.59839	326
870.09668	348
870.59485	352
871.09302	401
871.59113	395
872.08923	407
872.58728	441
873.08527	456
873.58325	457
874.08118	469
874.57904	459
875.0769	458
875.57465	448
876.07245	473
876.57013	461
877.06781	449
877.56549	459
878.06305	441
878.56061	479
879.05817	483
879.5556	487
880.05304	489
880.55042	483
881.04779	502
881.5451	488
882.04236	496
882.53961	478
883.0368	462
883.53394	519
884.03107	491
884.52808	498
885.02515	549
