Date and Time:                Sat Oct 18 13:15:18.508 2025
Software Version:             4.30.30000.0
Unstabilized Temperature (C): -89.631
Model:                        DU971P_UVB
Data Type:                    Counts
Acquisition Mode:             Single Scan
Trigger Mode:                 Internal
Exposure Time (secs):         30
Readout Mode:                 Full Vertical Binning
Horizontal binning:           2
Extended Dynamic Range:       off
Horizontally flipped:         false
Vertical Shift Speed (usecs): 9.68
Pixel Readout Rate (MHz):     3
Baseline Clamp:               ON
Clock Amplitude:              Normal
Output Amplifier:             Conventional
Serial Number:                20367
Pre-Amplifier Gain:           4x
Spurious Noise Filter Mode:   No Filter
Photon counted:               false
Data Averaging Filter Mode:   No Filter
SR193i:
Serial Number:                SR-2646
Wavelength (nm):              690
Grating Groove Density (l/mm):300
Grating Blaze:                500nm
Input Side Slit Width (um):   1000



478.32681	252
478.84332	314
479.35983	327
479.87631	322
480.39282	301
480.9093	317
481.42575	333
481.94223	323
482.45868	306
482.97513	323
483.49158	311
484.00803	315
484.52444	312
485.04086	321
485.55728	327
486.07367	316
486.59006	304
487.10645	306
487.62283	325
488.13919	326
488.65555	311
489.17191	310
489.68826	305
490.20459	321
490.72092	304
491.23724	318
491.75354	358
492.26984	302
492.78613	303
493.30243	323
493.8187	309
494.33496	315
494.85123	318
495.36746	306
495.8837	330
496.39993	324
496.91617	312
497.43237	320
497.94858	329
498.46478	296
498.98096	301
499.49713	305
500.01331	305
500.52945	334
501.04562	303
501.56174	325
502.07788	326
502.59399	308
503.11011	332
503.62622	303
504.1423	302
504.65839	298
505.17447	320
505.69052	327
506.20657	330
506.72263	316
507.23865	304
507.75467	304
508.27069	340
508.78668	324
509.30267	326
509.81866	322
510.33463	325
510.85059	320
511.36655	324
511.88248	301
512.39844	323
512.91437	307
513.43024	322
513.94617	305
514.46204	311
514.97791	312
515.49377	313
516.00964	318
516.52551	291
517.04132	306
517.55719	322
518.073	322
518.58881	315
519.10461	311
519.62036	321
520.13617	309
520.65192	327
521.16766	321
521.68341	304
522.1991	287
522.71484	305
523.23053	318
523.74622	315
524.2619	308
524.77759	321
525.29327	326
525.8089	303
526.32452	325
526.84015	321
527.35577	299
527.8714	305
528.38696	340
528.90259	311
529.41815	298
529.93372	326
530.44922	320
530.96478	308
531.48029	298
531.99579	328
532.51129	315
533.02679	320
533.5423	305
534.05774	342
534.57318	318
535.08862	307
535.60406	308
536.11945	313
536.63489	300
537.15027	318
537.66565	335
538.18097	299
538.69635	315
539.21167	328
539.72699	307
540.24231	316
540.75763	325
541.27289	307
541.78821	311
542.30347	308
542.81873	327
543.33392	302
543.84918	309
544.36438	303
544.87958	316
545.39478	301
545.90991	300
546.42511	298
546.94025	295
547.45538	303
547.97052	322
548.4856	319
549.00073	314
549.51581	296
550.03088	335
550.5459	318
551.06097	313
551.57599	329
552.091	336
552.60602	339
553.12097	313
553.63593	300
554.15094	317
554.66583	295
555.18079	326
555.69568	325
556.21063	321
556.72552	339
557.24036	321
557.75525	320
558.27008	304
558.78491	313
559.29974	314
559.81458	316
560.32935	313
560.84412	294
561.35889	310
561.87366	315
562.38837	294
562.90308	316
563.41779	317
563.9325	294
564.44714	312
564.96179	304
565.47644	327
565.99109	320
566.50574	307
567.02032	311
567.53491	294
568.0495	309
568.56403	325
569.07861	317
569.59314	343
570.1076	306
570.62213	300
571.1366	312
571.65106	327
572.16553	311
572.67999	324
573.1944	308
573.7088	311
574.22321	330
574.73755	302
575.25195	306
575.7663	303
576.28058	313
576.79492	302
577.3092	306
577.82349	308
578.33777	319
578.85205	320
579.36627	323
579.88049	326
580.39471	306
580.90887	317
581.42303	315
581.93719	298
582.45135	305
582.96545	303
583.47955	309
583.99365	312
584.50775	321
585.02179	333
585.53583	334
586.04987	315
586.5639	319
587.07788	326
587.59186	306
588.10583	331
588.61975	321
589.13373	293
589.64758	305
590.1615	330
590.67542	308
591.18927	303
591.70306	309
592.21692	306
592.73071	302
593.24451	320
593.7583	299
594.27209	316
594.78583	297
595.29956	306
595.81323	325
596.32697	322
596.84064	319
597.35425	316
597.86792	307
598.38153	320
598.89514	294
599.40875	330
599.9223	309
600.43585	314
600.9494	302
601.46289	322
601.97638	309
602.48987	307
603.00336	312
603.51678	313
604.03021	322
604.54364	299
605.05701	308
605.57043	331
606.08374	312
606.59711	304
607.11041	315
607.62372	298
608.13702	341
608.65027	304
609.16351	308
609.67676	329
610.19	310
610.70319	329
611.21637	320
611.72949	310
612.24268	347
612.75574	331
613.26886	328
613.78192	314
614.29504	295
614.80804	316
615.32111	322
615.83411	313
616.34711	304
616.86005	311
617.37299	316
617.88593	289
618.39886	312
618.91174	326
619.42462	295
619.9375	331
620.45032	308
620.96313	295
621.47595	322
621.98871	328
622.50146	303
623.01422	307
623.52692	315
624.03967	333
624.55231	323
625.065	317
625.57764	333
626.09027	317
626.60284	316
627.11542	325
627.62799	301
628.14056	310
628.65308	333
629.16559	316
629.6781	328
630.19055	275
630.703	309
631.21539	318
631.72784	309
632.24017	317
632.75256	298
633.26489	310
633.77722	308
634.28955	316
634.80182	289
635.31409	316
635.82635	339
636.33856	292
636.85077	312
637.36292	301
637.87512	320
638.38721	308
638.89935	312
639.41144	315
639.92352	304
640.43561	323
640.94763	323
641.45966	311
641.97162	317
642.48358	309
642.99554	326
643.50751	308
644.01941	317
644.53131	302
645.04315	331
645.55499	311
646.06683	296
646.57861	311
647.09045	304
647.60217	317
648.11395	302
648.62567	307
649.13733	320
649.64905	309
650.16064	324
650.6723	326
651.1839	292
651.6955	320
652.20709	289
652.71863	334
653.23016	321
653.74164	305
654.25311	314
654.76459	314
655.276	327
655.78741	306
656.29883	293
656.81018	314
657.32153	304
657.83289	318
658.34418	314
658.85547	316
659.3667	321
659.87793	337
660.38916	301
660.90033	311
661.4115	334
661.92267	296
662.43378	310
662.94489	297
663.45593	310
663.96698	302
664.47803	312
664.98907	312
665.50006	322
666.01099	303
666.52191	343
667.03284	307
667.54376	318
668.05463	318
668.56549	322
669.07629	303
669.5871	323
670.0979	310
670.60864	334
671.11938	313
671.63007	299
672.14075	323
672.65143	316
673.16205	321
673.67267	319
674.18329	289
674.69385	308
675.20435	322
675.7149	320
676.2254	319
676.73584	307
677.24628	307
677.75671	318
678.26715	302
678.77753	317
679.28784	309
679.79822	306
680.30847	308
680.81879	322
681.32904	320
681.83923	320
682.34949	345
682.85968	315
683.36981	322
683.87994	315
684.39008	315
684.90015	324
685.41022	299
685.92023	314
686.43024	306
686.94025	325
687.4502	319
687.96014	311
688.47003	317
688.97992	310
689.48981	313
689.99963	332
690.50946	323
691.01923	324
691.52899	294
692.03876	308
692.54846	306
693.05817	312
693.56781	296
694.07745	332
694.58704	310
695.09662	325
695.6062	333
696.11572	309
696.62524	318
697.1347	315
697.64417	319
698.15363	301
698.66302	307
699.17242	294
699.68176	309
700.1911	348
700.70044	310
701.20972	339
701.71893	298
702.22815	299
702.73737	320
703.24652	311
703.75568	301
704.26483	326
704.77393	301
705.28302	305
705.79205	305
706.30103	298
706.81006	324
707.31903	316
707.82794	306
708.33685	315
708.84576	324
709.35461	299
709.86346	301
710.37225	321
710.88104	338
711.38977	324
711.8985	317
712.40723	327
712.91589	318
713.42456	306
713.93317	312
714.44177	304
714.95032	327
715.45886	328
715.96735	310
716.47583	309
716.98431	331
717.49274	308
718.00116	335
718.50952	318
719.01788	316
719.52618	316
720.03448	299
720.54272	312
721.05096	310
721.5592	299
722.06738	322
722.57556	306
723.08368	298
723.59174	313
724.09985	292
724.60791	309
725.11591	333
725.6239	321
726.13184	315
726.63977	317
727.14771	314
727.65558	310
728.16339	326
728.67126	307
729.17902	306
729.68683	329
730.19452	315
730.70227	327
731.2099	304
731.71759	289
732.22522	304
732.73279	310
733.24036	312
733.74792	324
734.25543	310
734.76288	301
735.27032	306
735.77777	292
736.28516	317
736.79254	323
737.29987	319
737.80719	319
738.31445	332
738.82172	317
739.32892	304
739.83612	335
740.34326	317
740.8504	308
741.35748	320
741.86456	308
742.37164	302
742.87866	301
743.38562	305
743.89258	308
744.39954	305
744.90643	310
745.41327	303
745.9201	305
746.42694	312
746.93372	296
747.44049	308
747.9472	281
748.45386	314
748.96057	319
749.46716	310
749.97375	306
750.48035	315
750.98688	294
751.49341	311
751.99988	308
752.50635	310
753.01276	300
753.51917	316
754.02551	317
754.53186	309
755.03815	327
755.54443	307
756.05066	318
756.55688	327
757.06305	311
757.56921	308
758.07532	301
758.58142	322
759.08746	288
759.59351	316
760.09949	312
760.60547	295
761.11139	320
761.61725	301
762.12317	325
762.62897	303
763.13483	313
763.64056	327
764.1463	314
764.65204	306
765.15771	296
765.66339	297
766.16901	305
766.67462	316
767.18018	309
767.68567	312
768.19116	305
768.69666	308
769.20209	302
769.70746	308
770.21283	315
770.7182	310
771.22351	320
771.72876	308
772.23401	306
772.73926	307
773.24445	294
773.74957	295
774.2547	317
774.75977	310
775.26483	288
775.76984	313
776.27484	318
776.77979	308
777.28473	302
777.78961	286
778.29449	310
778.79932	295
779.30408	313
779.80884	295
780.3136	295
780.8183	320
781.32294	332
781.82758	309
782.33215	283
782.83673	315
783.34131	307
783.84576	318
784.35028	339
784.85468	301
785.35907	322
785.86346	307
786.3678	319
786.87213	313
787.3764	307
787.88062	321
788.38483	311
788.88898	334
789.39313	304
789.89722	326
790.40131	319
790.90533	291
791.40936	320
791.91333	309
792.4173	307
792.9212	308
793.42505	288
793.92889	325
794.43268	295
794.93646	314
795.44019	325
795.94391	326
796.44757	291
796.95123	319
797.45483	298
797.95837	325
798.46191	317
798.96539	297
799.46887	299
799.97235	316
800.47571	300
800.97906	288
801.48242	310
801.98572	308
802.48895	311
802.99219	303
803.49536	315
803.99854	309
804.50165	308
805.00476	330
805.50781	301
806.01086	317
806.51379	313
807.01678	311
807.51971	294
808.02258	337
808.52539	297
809.02826	301
809.53101	302
810.03375	314
810.53644	307
811.03912	310
811.54175	314
812.04437	307
812.54694	333
813.04944	295
813.55194	301
814.05444	308
814.55682	318
815.05927	300
815.56158	320
816.0639	303
816.56622	316
817.06842	292
817.57068	316
818.07281	321
818.57495	311
819.07709	300
819.57916	325
820.08118	311
820.58319	316
821.08514	302
821.5871	315
822.08899	307
822.59082	307
823.09265	309
823.59442	331
824.09619	294
824.5979	309
825.09955	312
825.6012	318
826.10278	303
826.60437	299
827.1059	299
827.60736	318
828.10883	315
828.61023	315
829.11163	310
829.61298	324
830.11432	314
830.61554	297
831.11682	311
831.61798	322
832.11914	309
832.6203	318
833.1214	299
833.62244	324
834.12347	319
834.62445	292
835.12537	311
835.62628	327
836.12714	323
836.62799	314
837.12878	296
837.62952	320
838.13025	315
838.63092	315
839.13153	310
839.63214	296
840.13275	310
840.63324	312
841.13373	286
841.63422	306
842.13464	319
842.63501	314
843.13538	292
843.63568	313
844.13593	334
844.63617	330
845.13635	284
845.63647	323
846.1366	319
846.63672	335
847.13672	318
847.63672	315
848.13672	322
848.6366	312
849.13647	290
849.63635	312
850.13617	294
850.63593	295
851.13568	325
851.63538	315
852.13501	317
852.63464	322
853.13422	342
853.63373	322
854.13324	321
854.63275	323
855.13214	308
855.63153	308
856.13086	316
856.63019	323
857.12946	306
857.62866	313
858.12787	309
858.62701	295
859.12616	311
859.62524	302
860.12427	328
860.62323	306
861.12219	329
861.62109	308
862.12	324
862.61884	329
863.11761	313
863.61639	313
864.11511	299
864.61377	314
865.11243	313
865.61102	326
866.10962	309
866.60809	318
867.10663	312
867.60504	328
868.10345	336
868.60181	313
869.10016	341
869.59839	333
870.09668	311
870.59485	335
871.09302	319
871.59113	309
872.08923	308
872.58728	301
873.08527	308
873.58325	298
874.08118	322
874.57904	292
875.0769	307
875.57465	321
876.07245	310
876.57013	319
877.06781	336
877.56549	322
878.06305	319
878.56061	301
879.05817	333
879.5556	321
880.05304	318
880.55042	327
881.04779	323
881.5451	334
882.04236	327
882.53961	306
883.0368	334
883.53394	317
884.03107	300
884.52808	305
885.02515	328
