Date and Time:                Wed Oct 22 09:57:31.402 2025
Software Version:             4.30.30000.0
Temperature (C):              -90
Model:                        DU971P_UVB
Data Type:                    Counts
Acquisition Mode:             Single Scan
Trigger Mode:                 Internal
Exposure Time (secs):         30
Readout Mode:                 Full Vertical Binning
Horizontal binning:           2
Extended Dynamic Range:       off
Horizontally flipped:         false
Vertical Shift Speed (usecs): 9.68
Pixel Readout Rate (MHz):     3
Baseline Clamp:               ON
Clock Amplitude:              Normal
Output Amplifier:             Conventional
Serial Number:                20367
Pre-Amplifier Gain:           4x
Spurious Noise Filter Mode:   No Filter
Photon counted:               false
Data Averaging Filter Mode:   No Filter
SR193i:
Serial Number:                SR-2646
Wavelength (nm):              690
Grating Groove Density (l/mm):300
Grating Blaze:                500nm
Input Side Slit Width (um):   1000



478.32681	309
478.84332	342
479.35983	346
479.87631	395
480.39282	354
480.9093	374
481.42575	375
481.94223	382
482.45868	376
482.97513	347
483.49158	388
484.00803	355
484.52444	368
485.04086	390
485.55728	426
486.07367	463
486.59006	452
487.10645	452
487.62283	459
488.13919	455
488.65555	485
489.17191	502
489.68826	494
490.20459	515
490.72092	542
491.23724	532
491.75354	558
492.26984	542
492.78613	570
493.30243	572
493.8187	571
494.33496	667
494.85123	628
495.36746	640
495.8837	639
496.39993	650
496.91617	652
497.43237	710
497.94858	730
498.46478	664
498.98096	698
499.49713	728
500.01331	706
500.52945	699
501.04562	696
501.56174	711
502.07788	731
502.59399	746
503.11011	712
503.62622	726
504.1423	704
504.65839	699
505.17447	703
505.69052	724
506.20657	714
506.72263	736
507.23865	708
507.75467	734
508.27069	704
508.78668	737
509.30267	715
509.81866	708
510.33463	693
510.85059	703
511.36655	759
511.88248	703
512.39844	719
512.91437	708
513.43024	696
513.94617	742
514.46204	712
514.97791	729
515.49377	717
516.00964	734
516.52551	687
517.04132	662
517.55719	691
518.073	689
518.58881	679
519.10461	673
519.62036	704
520.13617	699
520.65192	687
521.16766	694
521.68341	680
522.1991	707
522.71484	694
523.23053	716
523.74622	659
524.2619	676
524.77759	678
525.29327	690
525.8089	665
526.32452	690
526.84015	657
527.35577	657
527.8714	714
528.38696	670
528.90259	626
529.41815	666
529.93372	644
530.44922	693
530.96478	653
531.48029	653
531.99579	664
532.51129	649
533.02679	703
533.5423	658
534.05774	678
534.57318	642
535.08862	635
535.60406	645
536.11945	651
536.63489	613
537.15027	738
537.66565	662
538.18097	667
538.69635	654
539.21167	675
539.72699	674
540.24231	654
540.75763	679
541.27289	633
541.78821	641
542.30347	631
542.81873	637
543.33392	681
543.84918	665
544.36438	664
544.87958	688
545.39478	684
545.90991	653
546.42511	633
546.94025	675
547.45538	681
547.97052	690
548.4856	679
549.00073	663
549.51581	691
550.03088	721
550.5459	719
551.06097	719
551.57599	738
552.091	713
552.60602	764
553.12097	726
553.63593	723
554.15094	704
554.66583	769
555.18079	736
555.69568	790
556.21063	800
556.72552	802
557.24036	788
557.75525	833
558.27008	825
558.78491	834
559.29974	806
559.81458	868
560.32935	836
560.84412	863
561.35889	837
561.87366	791
562.38837	911
562.90308	858
563.41779	912
563.9325	938
564.44714	883
564.96179	881
565.47644	923
565.99109	991
566.50574	926
567.02032	1011
567.53491	962
568.0495	1013
568.56403	1013
569.07861	1075
569.59314	1071
570.1076	993
570.62213	1059
571.1366	1090
571.65106	1158
572.16553	1071
572.67999	1077
573.1944	1078
573.7088	1098
574.22321	1207
574.73755	1160
575.25195	1136
575.7663	1185
576.28058	1171
576.79492	1185
577.3092	1195
577.82349	1175
578.33777	1261
578.85205	1217
579.36627	1308
579.88049	1169
580.39471	1316
580.90887	1354
581.42303	1340
581.93719	1350
582.45135	1365
582.96545	1396
583.47955	1365
583.99365	1370
584.50775	1467
585.02179	1350
585.53583	1466
586.04987	1526
586.5639	1478
587.07788	1457
587.59186	1500
588.10583	1482
588.61975	1454
589.13373	1427
589.64758	1474
590.1615	1554
590.67542	1520
591.18927	1585
591.70306	1552
592.21692	1580
592.73071	1501
593.24451	1604
593.7583	1612
594.27209	1562
594.78583	1631
595.29956	1597
595.81323	1635
596.32697	1600
596.84064	1662
597.35425	1652
597.86792	1606
598.38153	1566
598.89514	1657
599.40875	1671
599.9223	1673
600.43585	1663
600.9494	1656
601.46289	1705
601.97638	1580
602.48987	1729
603.00336	1587
603.51678	1687
604.03021	1705
604.54364	1679
605.05701	1674
605.57043	1703
606.08374	1610
606.59711	1774
607.11041	1808
607.62372	1625
608.13702	1677
608.65027	1717
609.16351	1630
609.67676	1798
610.19	1642
610.70319	1673
611.21637	1683
611.72949	1707
612.24268	1617
612.75574	1629
613.26886	1680
613.78192	1639
614.29504	1726
614.80804	1679
615.32111	1673
615.83411	1595
616.34711	1701
616.86005	1617
617.37299	1639
617.88593	1630
618.39886	1603
618.91174	1642
619.42462	1703
619.9375	1584
620.45032	1577
620.96313	1567
621.47595	1529
621.98871	1578
622.50146	1483
623.01422	1652
623.52692	1550
624.03967	1583
624.55231	1555
625.065	1471
625.57764	1591
626.09027	1568
626.60284	1505
627.11542	1495
627.62799	1553
628.14056	1561
628.65308	1567
629.16559	1479
629.6781	1532
630.19055	1486
630.703	1543
631.21539	1490
631.72784	1521
632.24017	1474
632.75256	1529
633.26489	1474
633.77722	1484
634.28955	1431
634.80182	1417
635.31409	1442
635.82635	1443
636.33856	1401
636.85077	1336
637.36292	1376
637.87512	1336
638.38721	1411
638.89935	1346
639.41144	1299
639.92352	1374
640.43561	1420
640.94763	1371
641.45966	1371
641.97162	1453
642.48358	1375
642.99554	1274
643.50751	1282
644.01941	1338
644.53131	1340
645.04315	1323
645.55499	1279
646.06683	1307
646.57861	1301
647.09045	1219
647.60217	1250
648.11395	1185
648.62567	1243
649.13733	1213
649.64905	1304
650.16064	1212
650.6723	1249
651.1839	1180
651.6955	1212
652.20709	1196
652.71863	1160
653.23016	1224
653.74164	1228
654.25311	1149
654.76459	1138
655.276	1181
655.78741	1124
656.29883	1112
656.81018	1148
657.32153	1092
657.83289	1155
658.34418	1163
658.85547	1098
659.3667	1159
659.87793	1119
660.38916	1171
660.90033	1070
661.4115	1065
661.92267	1058
662.43378	1025
662.94489	1071
663.45593	1059
663.96698	1084
664.47803	1074
664.98907	1020
665.50006	1038
666.01099	1056
666.52191	991
667.03284	997
667.54376	1005
668.05463	1026
668.56549	964
669.07629	1030
669.5871	988
670.0979	960
670.60864	959
671.11938	999
671.63007	930
672.14075	944
672.65143	963
673.16205	961
673.67267	966
674.18329	922
674.69385	970
675.20435	970
675.7149	886
676.2254	845
676.73584	846
677.24628	875
677.75671	851
678.26715	875
678.77753	853
679.28784	879
679.79822	872
680.30847	805
680.81879	830
681.32904	850
681.83923	879
682.34949	890
682.85968	785
683.36981	863
683.87994	845
684.39008	795
684.90015	765
685.41022	862
685.92023	846
686.43024	821
686.94025	751
687.4502	752
687.96014	785
688.47003	797
688.97992	763
689.48981	761
689.99963	790
690.50946	760
691.01923	761
691.52899	719
692.03876	788
692.54846	777
693.05817	736
693.56781	737
694.07745	728
694.58704	745
695.09662	726
695.6062	663
696.11572	731
696.62524	743
697.1347	747
697.64417	661
698.15363	738
698.66302	718
699.17242	693
699.68176	697
700.1911	691
700.70044	714
701.20972	629
701.71893	676
702.22815	669
702.73737	680
703.24652	643
703.75568	677
704.26483	603
704.77393	611
705.28302	656
705.79205	655
706.30103	641
706.81006	648
707.31903	609
707.82794	629
708.33685	663
708.84576	657
709.35461	628
709.86346	661
710.37225	583
710.88104	637
711.38977	648
711.8985	625
712.40723	624
712.91589	608
713.42456	591
713.93317	613
714.44177	596
714.95032	596
715.45886	628
715.96735	610
716.47583	602
716.98431	597
717.49274	560
718.00116	554
718.50952	574
719.01788	573
719.52618	581
720.03448	604
720.54272	592
721.05096	560
721.5592	542
722.06738	587
722.57556	567
723.08368	562
723.59174	581
724.09985	575
724.60791	570
725.11591	550
725.6239	537
726.13184	525
726.63977	559
727.14771	541
727.65558	556
728.16339	518
728.67126	564
729.17902	523
729.68683	583
730.19452	546
730.70227	487
731.2099	526
731.71759	527
732.22522	563
732.73279	532
733.24036	536
733.74792	534
734.25543	486
734.76288	550
735.27032	519
735.77777	507
736.28516	480
736.79254	514
737.29987	508
737.80719	520
738.31445	500
738.82172	519
739.32892	469
739.83612	507
740.34326	496
740.8504	463
741.35748	511
741.86456	501
742.37164	481
742.87866	474
743.38562	468
743.89258	462
744.39954	484
744.90643	486
745.41327	474
745.9201	470
746.42694	492
746.93372	480
747.44049	476
747.9472	462
748.45386	440
748.96057	462
749.46716	467
749.97375	433
750.48035	461
750.98688	458
751.49341	457
751.99988	423
752.50635	428
753.01276	450
753.51917	450
754.02551	453
754.53186	439
755.03815	422
755.54443	436
756.05066	461
756.55688	452
757.06305	437
757.56921	452
758.07532	447
758.58142	418
759.08746	371
759.59351	425
760.09949	420
760.60547	415
761.11139	420
761.61725	418
762.12317	456
762.62897	457
763.13483	389
763.64056	411
764.1463	435
764.65204	389
765.15771	415
765.66339	410
766.16901	415
766.67462	424
767.18018	422
767.68567	401
768.19116	419
768.69666	402
769.20209	392
769.70746	421
770.21283	383
770.7182	435
771.22351	405
771.72876	387
772.23401	390
772.73926	389
773.24445	365
773.74957	428
774.2547	424
774.75977	428
775.26483	408
775.76984	376
776.27484	425
776.77979	360
777.28473	401
777.78961	384
778.29449	395
778.79932	406
779.30408	388
779.80884	389
780.3136	413
780.8183	387
781.32294	385
781.82758	382
782.33215	365
782.83673	372
783.34131	357
783.84576	386
784.35028	378
784.85468	383
785.35907	377
785.86346	373
786.3678	372
786.87213	361
787.3764	377
787.88062	386
788.38483	379
788.88898	368
789.39313	385
789.89722	370
790.40131	358
790.90533	375
791.40936	388
791.91333	355
792.4173	333
792.9212	376
793.42505	359
793.92889	365
794.43268	377
794.93646	360
795.44019	361
795.94391	384
796.44757	360
796.95123	376
797.45483	370
797.95837	359
798.46191	353
798.96539	357
799.46887	390
799.97235	348
800.47571	365
800.97906	357
801.48242	372
801.98572	378
802.48895	347
802.99219	354
803.49536	380
803.99854	368
804.50165	345
805.00476	358
805.50781	353
806.01086	357
806.51379	367
807.01678	331
807.51971	351
808.02258	346
808.52539	337
809.02826	361
809.53101	358
810.03375	347
810.53644	344
811.03912	325
811.54175	342
812.04437	356
812.54694	355
813.04944	360
813.55194	331
814.05444	347
814.55682	362
815.05927	363
815.56158	359
816.0639	332
816.56622	347
817.06842	353
817.57068	340
818.07281	352
818.57495	360
819.07709	344
819.57916	361
820.08118	348
820.58319	345
821.08514	361
821.5871	318
822.08899	342
822.59082	359
823.09265	348
823.59442	353
824.09619	370
824.5979	341
825.09955	344
825.6012	362
826.10278	336
826.60437	346
827.1059	345
827.60736	346
828.10883	339
828.61023	351
829.11163	336
829.61298	317
830.11432	369
830.61554	345
831.11682	328
831.61798	357
832.11914	343
832.6203	319
833.1214	346
833.62244	363
834.12347	336
834.62445	344
835.12537	341
835.62628	349
836.12714	317
836.62799	317
837.12878	337
837.62952	339
838.13025	341
838.63092	353
839.13153	337
839.63214	350
840.13275	339
840.63324	323
841.13373	341
841.63422	339
842.13464	332
842.63501	347
843.13538	343
843.63568	343
844.13593	371
844.63617	360
845.13635	356
845.63647	340
846.1366	335
846.63672	374
847.13672	322
847.63672	337
848.13672	352
848.6366	349
849.13647	367
849.63635	342
850.13617	338
850.63593	331
851.13568	310
851.63538	334
852.13501	352
852.63464	344
853.13422	314
853.63373	331
854.13324	348
854.63275	332
855.13214	343
855.63153	351
856.13086	350
856.63019	352
857.12946	350
857.62866	356
858.12787	340
858.62701	341
859.12616	335
859.62524	351
860.12427	377
860.62323	319
861.12219	336
861.62109	332
862.12	389
862.61884	332
863.11761	333
863.61639	334
864.11511	328
864.61377	339
865.11243	319
865.61102	330
866.10962	350
866.60809	335
867.10663	362
867.60504	319
868.10345	324
868.60181	344
869.10016	339
869.59839	359
870.09668	389
870.59485	431
871.09302	517
871.59113	632
872.08923	678
872.58728	728
873.08527	817
873.58325	816
874.08118	812
874.57904	776
875.0769	827
875.57465	797
876.07245	855
876.57013	857
877.06781	846
877.56549	873
878.06305	866
878.56061	866
879.05817	897
879.5556	850
880.05304	903
880.55042	823
881.04779	864
881.5451	868
882.04236	839
882.53961	904
883.0368	920
883.53394	879
884.03107	865
884.52808	877
885.02515	862
