Date and Time:                Sat Oct 18 08:15:43.584 2025
Software Version:             4.30.30000.0
Temperature (C):              -90
Model:                        DU971P_UVB
Data Type:                    Counts
Acquisition Mode:             Single Scan
Trigger Mode:                 Internal
Exposure Time (secs):         30
Readout Mode:                 Full Vertical Binning
Horizontal binning:           2
Extended Dynamic Range:       off
Horizontally flipped:         false
Vertical Shift Speed (usecs): 9.68
Pixel Readout Rate (MHz):     3
Baseline Clamp:               ON
Clock Amplitude:              Normal
Output Amplifier:             Conventional
Serial Number:                20367
Pre-Amplifier Gain:           4x
Spurious Noise Filter Mode:   No Filter
Photon counted:               false
Data Averaging Filter Mode:   No Filter
SR193i:
Serial Number:                SR-2646
Wavelength (nm):              690
Grating Groove Density (l/mm):300
Grating Blaze:                500nm
Input Side Slit Width (um):   1000



478.32681	277
478.84332	323
479.35983	321
479.87631	325
480.39282	334
480.9093	323
481.42575	306
481.94223	303
482.45868	334
482.97513	359
483.49158	318
484.00803	323
484.52444	335
485.04086	323
485.55728	364
486.07367	332
486.59006	345
487.10645	343
487.62283	315
488.13919	340
488.65555	308
489.17191	334
489.68826	368
490.20459	351
490.72092	350
491.23724	349
491.75354	354
492.26984	334
492.78613	342
493.30243	350
493.8187	333
494.33496	340
494.85123	340
495.36746	349
495.8837	341
496.39993	361
496.91617	365
497.43237	353
497.94858	349
498.46478	352
498.98096	346
499.49713	353
500.01331	353
500.52945	341
501.04562	342
501.56174	369
502.07788	328
502.59399	363
503.11011	353
503.62622	343
504.1423	344
504.65839	346
505.17447	349
505.69052	323
506.20657	348
506.72263	336
507.23865	358
507.75467	366
508.27069	338
508.78668	360
509.30267	350
509.81866	370
510.33463	370
510.85059	346
511.36655	340
511.88248	362
512.39844	355
512.91437	353
513.43024	330
513.94617	362
514.46204	369
514.97791	328
515.49377	360
516.00964	342
516.52551	329
517.04132	356
517.55719	360
518.073	352
518.58881	338
519.10461	353
519.62036	353
520.13617	353
520.65192	345
521.16766	359
521.68341	341
522.1991	359
522.71484	360
523.23053	337
523.74622	328
524.2619	353
524.77759	356
525.29327	341
525.8089	331
526.32452	336
526.84015	356
527.35577	373
527.8714	350
528.38696	340
528.90259	337
529.41815	315
529.93372	365
530.44922	346
530.96478	330
531.48029	340
531.99579	335
532.51129	341
533.02679	336
533.5423	356
534.05774	354
534.57318	348
535.08862	343
535.60406	336
536.11945	362
536.63489	356
537.15027	340
537.66565	347
538.18097	340
538.69635	344
539.21167	362
539.72699	348
540.24231	340
540.75763	325
541.27289	328
541.78821	358
542.30347	345
542.81873	332
543.33392	349
543.84918	359
544.36438	362
544.87958	330
545.39478	360
545.90991	332
546.42511	358
546.94025	358
547.45538	361
547.97052	323
548.4856	345
549.00073	331
549.51581	354
550.03088	366
550.5459	336
551.06097	329
551.57599	339
552.091	342
552.60602	344
553.12097	348
553.63593	323
554.15094	340
554.66583	339
555.18079	356
555.69568	315
556.21063	339
556.72552	339
557.24036	347
557.75525	334
558.27008	316
558.78491	347
559.29974	357
559.81458	349
560.32935	349
560.84412	355
561.35889	350
561.87366	325
562.38837	322
562.90308	322
563.41779	351
563.9325	328
564.44714	345
564.96179	318
565.47644	356
565.99109	338
566.50574	345
567.02032	336
567.53491	343
568.0495	339
568.56403	340
569.07861	344
569.59314	326
570.1076	321
570.62213	335
571.1366	341
571.65106	356
572.16553	334
572.67999	328
573.1944	347
573.7088	337
574.22321	332
574.73755	368
575.25195	339
575.7663	340
576.28058	317
576.79492	323
577.3092	342
577.82349	348
578.33777	347
578.85205	330
579.36627	326
579.88049	351
580.39471	311
580.90887	331
581.42303	350
581.93719	337
582.45135	337
582.96545	1026
583.47955	358
583.99365	328
584.50775	321
585.02179	325
585.53583	1989
586.04987	5480
586.5639	4200
587.07788	11930
587.59186	302
588.10583	362
588.61975	327
589.13373	321
589.64758	330
590.1615	349
590.67542	321
591.18927	340
591.70306	331
592.21692	322
592.73071	333
593.24451	335
593.7583	354
594.27209	327
594.78583	347
595.29956	361
595.81323	324
596.32697	325
596.84064	320
597.35425	320
597.86792	328
598.38153	310
598.89514	320
599.40875	323
599.9223	332
600.43585	318
600.9494	301
601.46289	344
601.97638	335
602.48987	323
603.00336	303
603.51678	333
604.03021	324
604.54364	346
605.05701	326
605.57043	319
606.08374	349
606.59711	339
607.11041	318
607.62372	331
608.13702	312
608.65027	318
609.16351	334
609.67676	328
610.19	336
610.70319	333
611.21637	314
611.72949	300
612.24268	340
612.75574	341
613.26886	326
613.78192	337
614.29504	324
614.80804	317
615.32111	318
615.83411	333
616.34711	324
616.86005	332
617.37299	326
617.88593	324
618.39886	313
618.91174	313
619.42462	333
619.9375	324
620.45032	343
620.96313	338
621.47595	339
621.98871	319
622.50146	325
623.01422	336
623.52692	336
624.03967	336
624.55231	301
625.065	325
625.57764	342
626.09027	317
626.60284	323
627.11542	322
627.62799	310
628.14056	321
628.65308	330
629.16559	335
629.6781	327
630.19055	326
630.703	301
631.21539	327
631.72784	334
632.24017	330
632.75256	318
633.26489	333
633.77722	354
634.28955	345
634.80182	324
635.31409	334
635.82635	339
636.33856	309
636.85077	337
637.36292	314
637.87512	355
638.38721	301
638.89935	356
639.41144	346
639.92352	341
640.43561	338
640.94763	312
641.45966	323
641.97162	328
642.48358	329
642.99554	334
643.50751	319
644.01941	345
644.53131	330
645.04315	309
645.55499	317
646.06683	326
646.57861	337
647.09045	332
647.60217	328
648.11395	342
648.62567	343
649.13733	331
649.64905	339
650.16064	331
650.6723	329
651.1839	313
651.6955	319
652.20709	321
652.71863	325
653.23016	322
653.74164	314
654.25311	326
654.76459	318
655.276	321
655.78741	324
656.29883	309
656.81018	324
657.32153	344
657.83289	332
658.34418	338
658.85547	326
659.3667	309
659.87793	310
660.38916	322
660.90033	360
661.4115	339
661.92267	319
662.43378	343
662.94489	325
663.45593	356
663.96698	335
664.47803	320
664.98907	325
665.50006	329
666.01099	313
666.52191	307
667.03284	314
667.54376	322
668.05463	338
668.56549	326
669.07629	351
669.5871	342
670.0979	307
670.60864	325
671.11938	307
671.63007	315
672.14075	336
672.65143	307
673.16205	335
673.67267	325
674.18329	318
674.69385	318
675.20435	316
675.7149	316
676.2254	315
676.73584	329
677.24628	313
677.75671	329
678.26715	331
678.77753	326
679.28784	344
679.79822	317
680.30847	309
680.81879	310
681.32904	345
681.83923	306
682.34949	346
682.85968	348
683.36981	333
683.87994	331
684.39008	312
684.90015	326
685.41022	320
685.92023	310
686.43024	328
686.94025	331
687.4502	335
687.96014	321
688.47003	304
688.97992	327
689.48981	315
689.99963	307
690.50946	326
691.01923	315
691.52899	325
692.03876	341
692.54846	306
693.05817	325
693.56781	325
694.07745	354
694.58704	304
695.09662	324
695.6062	300
696.11572	315
696.62524	346
697.1347	313
697.64417	327
698.15363	325
698.66302	339
699.17242	313
699.68176	337
700.1911	296
700.70044	320
701.20972	306
701.71893	311
702.22815	331
702.73737	316
703.24652	332
703.75568	316
704.26483	325
704.77393	323
705.28302	315
705.79205	318
706.30103	320
706.81006	326
707.31903	325
707.82794	338
708.33685	319
708.84576	317
709.35461	353
709.86346	322
710.37225	321
710.88104	331
711.38977	311
711.8985	321
712.40723	322
712.91589	327
713.42456	323
713.93317	322
714.44177	342
714.95032	321
715.45886	307
715.96735	315
716.47583	314
716.98431	323
717.49274	331
718.00116	308
718.50952	338
719.01788	333
719.52618	325
720.03448	319
720.54272	306
721.05096	318
721.5592	329
722.06738	325
722.57556	329
723.08368	333
723.59174	320
724.09985	342
724.60791	302
725.11591	326
725.6239	313
726.13184	298
726.63977	312
727.14771	326
727.65558	316
728.16339	335
728.67126	327
729.17902	299
729.68683	297
730.19452	293
730.70227	326
731.2099	326
731.71759	312
732.22522	294
732.73279	310
733.24036	314
733.74792	295
734.25543	317
734.76288	341
735.27032	308
735.77777	307
736.28516	300
736.79254	321
737.29987	314
737.80719	321
738.31445	321
738.82172	301
739.32892	322
739.83612	325
740.34326	325
740.8504	330
741.35748	303
741.86456	327
742.37164	287
742.87866	331
743.38562	340
743.89258	293
744.39954	316
744.90643	308
745.41327	308
745.9201	303
746.42694	305
746.93372	321
747.44049	322
747.9472	322
748.45386	316
748.96057	326
749.46716	315
749.97375	304
750.48035	314
750.98688	311
751.49341	307
751.99988	330
752.50635	323
753.01276	326
753.51917	326
754.02551	324
754.53186	306
755.03815	305
755.54443	338
756.05066	316
756.55688	318
757.06305	324
757.56921	306
758.07532	320
758.58142	322
759.08746	313
759.59351	317
760.09949	14923
760.60547	3173
761.11139	318
761.61725	328
762.12317	301
762.62897	310
763.13483	336
763.64056	323
764.1463	319
764.65204	335
765.15771	325
765.66339	336
766.16901	310
766.67462	318
767.18018	335
767.68567	321
768.19116	337
768.69666	330
769.20209	328
769.70746	308
770.21283	309
770.7182	333
771.22351	309
771.72876	321
772.23401	325
772.73926	313
773.24445	328
773.74957	325
774.2547	303
774.75977	315
775.26483	322
775.76984	313
776.27484	335
776.77979	330
777.28473	309
777.78961	321
778.29449	337
778.79932	332
779.30408	316
779.80884	308
780.3136	316
780.8183	313
781.32294	319
781.82758	320
782.33215	323
782.83673	294
783.34131	325
783.84576	315
784.35028	314
784.85468	304
785.35907	320
785.86346	321
786.3678	339
786.87213	314
787.3764	309
787.88062	328
788.38483	314
788.88898	332
789.39313	325
789.89722	329
790.40131	308
790.90533	318
791.40936	296
791.91333	319
792.4173	310
792.9212	302
793.42505	329
793.92889	316
794.43268	311
794.93646	331
795.44019	323
795.94391	324
796.44757	308
796.95123	329
797.45483	328
797.95837	313
798.46191	306
798.96539	319
799.46887	322
799.97235	311
800.47571	317
800.97906	312
801.48242	343
801.98572	313
802.48895	303
802.99219	300
803.49536	318
803.99854	317
804.50165	327
805.00476	331
805.50781	314
806.01086	327
806.51379	307
807.01678	311
807.51971	326
808.02258	311
808.52539	328
809.02826	307
809.53101	332
810.03375	306
810.53644	314
811.03912	328
811.54175	329
812.04437	315
812.54694	327
813.04944	311
813.55194	303
814.05444	304
814.55682	314
815.05927	316
815.56158	331
816.0639	341
816.56622	321
817.06842	306
817.57068	309
818.07281	322
818.57495	314
819.07709	335
819.57916	305
820.08118	322
820.58319	305
821.08514	318
821.5871	315
822.08899	343
822.59082	328
823.09265	327
823.59442	318
824.09619	335
824.5979	329
825.09955	314
825.6012	314
826.10278	325
826.60437	311
827.1059	307
827.60736	335
828.10883	332
828.61023	342
829.11163	320
829.61298	317
830.11432	312
830.61554	299
831.11682	323
831.61798	302
832.11914	314
832.6203	311
833.1214	293
833.62244	318
834.12347	314
834.62445	332
835.12537	329
835.62628	331
836.12714	328
836.62799	325
837.12878	307
837.62952	325
838.13025	310
838.63092	315
839.13153	306
839.63214	303
840.13275	324
840.63324	326
841.13373	292
841.63422	327
842.13464	316
842.63501	321
843.13538	306
843.63568	310
844.13593	298
844.63617	319
845.13635	307
845.63647	335
846.1366	317
846.63672	348
847.13672	296
847.63672	329
848.13672	310
848.6366	310
849.13647	338
849.63635	332
850.13617	331
850.63593	338
851.13568	325
851.63538	318
852.13501	326
852.63464	323
853.13422	324
853.63373	332
854.13324	298
854.63275	331
855.13214	322
855.63153	317
856.13086	319
856.63019	334
857.12946	308
857.62866	318
858.12787	325
858.62701	313
859.12616	299
859.62524	323
860.12427	316
860.62323	322
861.12219	298
861.62109	325
862.12	307
862.61884	321
863.11761	301
863.61639	328
864.11511	320
864.61377	299
865.11243	301
865.61102	333
866.10962	330
866.60809	321
867.10663	316
867.60504	316
868.10345	316
868.60181	323
869.10016	319
869.59839	343
870.09668	332
870.59485	365
871.09302	414
871.59113	406
872.08923	454
872.58728	444
873.08527	427
873.58325	451
874.08118	447
874.57904	469
875.0769	450
875.57465	478
876.07245	489
876.57013	440
877.06781	457
877.56549	477
878.06305	452
878.56061	465
879.05817	474
879.5556	477
880.05304	484
880.55042	453
881.04779	461
881.5451	489
882.04236	499
882.53961	520
883.0368	488
883.53394	488
884.03107	499
884.52808	470
885.02515	472
