Date and Time:                Sat Oct 18 08:22:33.015 2025
Software Version:             4.30.30000.0
Temperature (C):              -90
Model:                        DU971P_UVB
Data Type:                    Counts
Acquisition Mode:             Single Scan
Trigger Mode:                 Internal
Exposure Time (secs):         30
Readout Mode:                 Full Vertical Binning
Horizontal binning:           2
Extended Dynamic Range:       off
Horizontally flipped:         false
Vertical Shift Speed (usecs): 9.68
Pixel Readout Rate (MHz):     3
Baseline Clamp:               ON
Clock Amplitude:              Normal
Output Amplifier:             Conventional
Serial Number:                20367
Pre-Amplifier Gain:           4x
Spurious Noise Filter Mode:   No Filter
Photon counted:               false
Data Averaging Filter Mode:   No Filter
SR193i:
Serial Number:                SR-2646
Wavelength (nm):              690
Grating Groove Density (l/mm):300
Grating Blaze:                500nm
Input Side Slit Width (um):   1000



478.32681	256
478.84332	318
479.35983	333
479.87631	330
480.39282	317
480.9093	344
481.42575	325
481.94223	337
482.45868	332
482.97513	335
483.49158	336
484.00803	329
484.52444	306
485.04086	333
485.55728	358
486.07367	319
486.59006	308
487.10645	331
487.62283	323
488.13919	349
488.65555	336
489.17191	324
489.68826	339
490.20459	318
490.72092	351
491.23724	313
491.75354	337
492.26984	364
492.78613	352
493.30243	358
493.8187	337
494.33496	339
494.85123	361
495.36746	339
495.8837	368
496.39993	340
496.91617	354
497.43237	336
497.94858	341
498.46478	312
498.98096	334
499.49713	338
500.01331	358
500.52945	326
501.04562	331
501.56174	340
502.07788	370
502.59399	323
503.11011	336
503.62622	352
504.1423	333
504.65839	363
505.17447	349
505.69052	318
506.20657	311
506.72263	391
507.23865	352
507.75467	355
508.27069	376
508.78668	379
509.30267	350
509.81866	328
510.33463	346
510.85059	346
511.36655	356
511.88248	356
512.39844	336
512.91437	369
513.43024	341
513.94617	356
514.46204	340
514.97791	328
515.49377	340
516.00964	331
516.52551	351
517.04132	354
517.55719	328
518.073	367
518.58881	350
519.10461	344
519.62036	370
520.13617	348
520.65192	354
521.16766	343
521.68341	332
522.1991	348
522.71484	345
523.23053	351
523.74622	327
524.2619	332
524.77759	355
525.29327	330
525.8089	333
526.32452	361
526.84015	328
527.35577	389
527.8714	357
528.38696	337
528.90259	339
529.41815	345
529.93372	326
530.44922	339
530.96478	358
531.48029	334
531.99579	326
532.51129	315
533.02679	326
533.5423	335
534.05774	362
534.57318	351
535.08862	342
535.60406	362
536.11945	363
536.63489	334
537.15027	327
537.66565	354
538.18097	336
538.69635	338
539.21167	326
539.72699	342
540.24231	343
540.75763	342
541.27289	342
541.78821	320
542.30347	358
542.81873	325
543.33392	337
543.84918	364
544.36438	360
544.87958	340
545.39478	291
545.90991	337
546.42511	324
546.94025	327
547.45538	328
547.97052	342
548.4856	334
549.00073	342
549.51581	344
550.03088	330
550.5459	344
551.06097	331
551.57599	352
552.091	343
552.60602	316
553.12097	336
553.63593	332
554.15094	357
554.66583	359
555.18079	329
555.69568	321
556.21063	335
556.72552	335
557.24036	315
557.75525	336
558.27008	340
558.78491	339
559.29974	344
559.81458	334
560.32935	302
560.84412	299
561.35889	321
561.87366	341
562.38837	357
562.90308	341
563.41779	332
563.9325	337
564.44714	348
564.96179	341
565.47644	330
565.99109	323
566.50574	308
567.02032	343
567.53491	325
568.0495	310
568.56403	333
569.07861	309
569.59314	346
570.1076	324
570.62213	320
571.1366	338
571.65106	313
572.16553	318
572.67999	344
573.1944	310
573.7088	310
574.22321	309
574.73755	334
575.25195	325
575.7663	345
576.28058	333
576.79492	336
577.3092	324
577.82349	339
578.33777	329
578.85205	352
579.36627	345
579.88049	328
580.39471	321
580.90887	336
581.42303	337
581.93719	339
582.45135	325
582.96545	352
583.47955	329
583.99365	328
584.50775	325
585.02179	336
585.53583	328
586.04987	319
586.5639	321
587.07788	362
587.59186	307
588.10583	326
588.61975	327
589.13373	328
589.64758	308
590.1615	345
590.67542	319
591.18927	337
591.70306	316
592.21692	346
592.73071	335
593.24451	313
593.7583	327
594.27209	332
594.78583	329
595.29956	326
595.81323	320
596.32697	312
596.84064	321
597.35425	298
597.86792	330
598.38153	316
598.89514	312
599.40875	307
599.9223	334
600.43585	334
600.9494	326
601.46289	332
601.97638	320
602.48987	328
603.00336	326
603.51678	322
604.03021	318
604.54364	325
605.05701	320
605.57043	328
606.08374	323
606.59711	345
607.11041	311
607.62372	332
608.13702	345
608.65027	331
609.16351	348
609.67676	344
610.19	318
610.70319	330
611.21637	343
611.72949	319
612.24268	304
612.75574	341
613.26886	334
613.78192	311
614.29504	319
614.80804	332
615.32111	349
615.83411	323
616.34711	329
616.86005	333
617.37299	313
617.88593	316
618.39886	311
618.91174	325
619.42462	308
619.9375	323
620.45032	339
620.96313	314
621.47595	336
621.98871	330
622.50146	329
623.01422	311
623.52692	322
624.03967	333
624.55231	318
625.065	312
625.57764	314
626.09027	324
626.60284	328
627.11542	322
627.62799	324
628.14056	341
628.65308	314
629.16559	323
629.6781	326
630.19055	317
630.703	328
631.21539	302
631.72784	320
632.24017	319
632.75256	300
633.26489	323
633.77722	323
634.28955	336
634.80182	323
635.31409	314
635.82635	309
636.33856	305
636.85077	311
637.36292	300
637.87512	335
638.38721	339
638.89935	332
639.41144	334
639.92352	324
640.43561	322
640.94763	304
641.45966	322
641.97162	337
642.48358	321
642.99554	326
643.50751	324
644.01941	327
644.53131	311
645.04315	319
645.55499	326
646.06683	316
646.57861	328
647.09045	331
647.60217	311
648.11395	290
648.62567	316
649.13733	343
649.64905	304
650.16064	305
650.6723	337
651.1839	320
651.6955	317
652.20709	325
652.71863	319
653.23016	323
653.74164	327
654.25311	331
654.76459	309
655.276	325
655.78741	324
656.29883	335
656.81018	321
657.32153	338
657.83289	322
658.34418	354
658.85547	316
659.3667	326
659.87793	339
660.38916	315
660.90033	325
661.4115	309
661.92267	316
662.43378	310
662.94489	325
663.45593	305
663.96698	323
664.47803	327
664.98907	332
665.50006	324
666.01099	310
666.52191	316
667.03284	324
667.54376	327
668.05463	323
668.56549	318
669.07629	320
669.5871	315
670.0979	309
670.60864	331
671.11938	322
671.63007	314
672.14075	312
672.65143	336
673.16205	334
673.67267	323
674.18329	327
674.69385	311
675.20435	299
675.7149	312
676.2254	309
676.73584	302
677.24628	330
677.75671	316
678.26715	337
678.77753	325
679.28784	317
679.79822	329
680.30847	316
680.81879	314
681.32904	325
681.83923	340
682.34949	318
682.85968	312
683.36981	348
683.87994	328
684.39008	340
684.90015	307
685.41022	322
685.92023	311
686.43024	330
686.94025	307
687.4502	307
687.96014	323
688.47003	308
688.97992	312
689.48981	318
689.99963	323
690.50946	311
691.01923	312
691.52899	318
692.03876	330
692.54846	316
693.05817	289
693.56781	324
694.07745	317
694.58704	341
695.09662	316
695.6062	321
696.11572	317
696.62524	319
697.1347	288
697.64417	331
698.15363	323
698.66302	304
699.17242	302
699.68176	1260
700.1911	353
700.70044	328
701.20972	303
701.71893	325
702.22815	315
702.73737	317
703.24652	332
703.75568	329
704.26483	332
704.77393	301
705.28302	294
705.79205	302
706.30103	309
706.81006	317
707.31903	316
707.82794	327
708.33685	311
708.84576	311
709.35461	312
709.86346	309
710.37225	298
710.88104	321
711.38977	324
711.8985	326
712.40723	317
712.91589	320
713.42456	321
713.93317	312
714.44177	303
714.95032	305
715.45886	329
715.96735	306
716.47583	312
716.98431	324
717.49274	329
718.00116	325
718.50952	302
719.01788	319
719.52618	322
720.03448	312
720.54272	289
721.05096	315
721.5592	329
722.06738	320
722.57556	312
723.08368	328
723.59174	307
724.09985	343
724.60791	315
725.11591	320
725.6239	320
726.13184	327
726.63977	318
727.14771	331
727.65558	315
728.16339	325
728.67126	319
729.17902	334
729.68683	333
730.19452	325
730.70227	303
731.2099	320
731.71759	330
732.22522	329
732.73279	309
733.24036	302
733.74792	311
734.25543	303
734.76288	315
735.27032	328
735.77777	318
736.28516	305
736.79254	306
737.29987	311
737.80719	333
738.31445	318
738.82172	316
739.32892	346
739.83612	298
740.34326	301
740.8504	318
741.35748	307
741.86456	313
742.37164	321
742.87866	322
743.38562	317
743.89258	309
744.39954	309
744.90643	306
745.41327	321
745.9201	308
746.42694	316
746.93372	325
747.44049	311
747.9472	309
748.45386	334
748.96057	309
749.46716	312
749.97375	309
750.48035	285
750.98688	330
751.49341	301
751.99988	335
752.50635	330
753.01276	312
753.51917	293
754.02551	320
754.53186	332
755.03815	310
755.54443	325
756.05066	316
756.55688	316
757.06305	317
757.56921	322
758.07532	317
758.58142	295
759.08746	305
759.59351	309
760.09949	331
760.60547	308
761.11139	331
761.61725	311
762.12317	315
762.62897	311
763.13483	293
763.64056	333
764.1463	315
764.65204	309
765.15771	319
765.66339	308
766.16901	310
766.67462	331
767.18018	318
767.68567	318
768.19116	336
768.69666	300
769.20209	321
769.70746	342
770.21283	319
770.7182	312
771.22351	333
771.72876	310
772.23401	339
772.73926	312
773.24445	324
773.74957	319
774.2547	317
774.75977	300
775.26483	311
775.76984	310
776.27484	334
776.77979	325
777.28473	312
777.78961	316
778.29449	336
778.79932	322
779.30408	299
779.80884	302
780.3136	309
780.8183	293
781.32294	311
781.82758	311
782.33215	313
782.83673	314
783.34131	339
783.84576	306
784.35028	323
784.85468	341
785.35907	304
785.86346	315
786.3678	317
786.87213	317
787.3764	324
787.88062	307
788.38483	351
788.88898	319
789.39313	305
789.89722	333
790.40131	316
790.90533	309
791.40936	311
791.91333	329
792.4173	332
792.9212	309
793.42505	312
793.92889	298
794.43268	313
794.93646	305
795.44019	308
795.94391	302
796.44757	335
796.95123	315
797.45483	322
797.95837	324
798.46191	304
798.96539	312
799.46887	310
799.97235	315
800.47571	320
800.97906	318
801.48242	304
801.98572	324
802.48895	305
802.99219	317
803.49536	305
803.99854	314
804.50165	301
805.00476	305
805.50781	311
806.01086	320
806.51379	321
807.01678	320
807.51971	326
808.02258	320
808.52539	285
809.02826	312
809.53101	302
810.03375	311
810.53644	305
811.03912	320
811.54175	301
812.04437	313
812.54694	318
813.04944	309
813.55194	309
814.05444	322
814.55682	322
815.05927	323
815.56158	347
816.0639	338
816.56622	319
817.06842	315
817.57068	313
818.07281	320
818.57495	327
819.07709	294
819.57916	312
820.08118	323
820.58319	324
821.08514	292
821.5871	309
822.08899	309
822.59082	307
823.09265	310
823.59442	328
824.09619	305
824.5979	275
825.09955	330
825.6012	301
826.10278	313
826.60437	310
827.1059	324
827.60736	318
828.10883	310
828.61023	316
829.11163	323
829.61298	315
830.11432	309
830.61554	313
831.11682	318
831.61798	324
832.11914	303
832.6203	321
833.1214	323
833.62244	317
834.12347	294
834.62445	304
835.12537	321
835.62628	310
836.12714	329
836.62799	334
837.12878	335
837.62952	328
838.13025	322
838.63092	321
839.13153	329
839.63214	317
840.13275	316
840.63324	322
841.13373	320
841.63422	334
842.13464	317
842.63501	298
843.13538	314
843.63568	328
844.13593	328
844.63617	295
845.13635	341
845.63647	326
846.1366	315
846.63672	317
847.13672	311
847.63672	298
848.13672	314
848.6366	316
849.13647	323
849.63635	329
850.13617	313
850.63593	297
851.13568	304
851.63538	320
852.13501	321
852.63464	320
853.13422	313
853.63373	322
854.13324	323
854.63275	323
855.13214	322
855.63153	315
856.13086	309
856.63019	334
857.12946	321
857.62866	295
858.12787	317
858.62701	332
859.12616	305
859.62524	307
860.12427	324
860.62323	338
861.12219	323
861.62109	310
862.12	321
862.61884	312
863.11761	317
863.61639	321
864.11511	331
864.61377	324
865.11243	305
865.61102	319
866.10962	300
866.60809	312
867.10663	303
867.60504	314
868.10345	303
868.60181	320
869.10016	322
869.59839	338
870.09668	366
870.59485	368
871.09302	386
871.59113	402
872.08923	416
872.58728	429
873.08527	455
873.58325	443
874.08118	491
874.57904	471
875.0769	473
875.57465	482
876.07245	452
876.57013	465
877.06781	424
877.56549	445
878.06305	460
878.56061	475
879.05817	496
879.5556	450
880.05304	468
880.55042	489
881.04779	492
881.5451	511
882.04236	482
882.53961	449
883.0368	429
883.53394	469
884.03107	493
884.52808	477
885.02515	466
