Date and Time:                Sat Oct 18 08:17:05.828 2025
Software Version:             4.30.30000.0
Temperature (C):              -90
Model:                        DU971P_UVB
Data Type:                    Counts
Acquisition Mode:             Single Scan
Trigger Mode:                 Internal
Exposure Time (secs):         30
Readout Mode:                 Full Vertical Binning
Horizontal binning:           2
Extended Dynamic Range:       off
Horizontally flipped:         false
Vertical Shift Speed (usecs): 9.68
Pixel Readout Rate (MHz):     3
Baseline Clamp:               ON
Clock Amplitude:              Normal
Output Amplifier:             Conventional
Serial Number:                20367
Pre-Amplifier Gain:           4x
Spurious Noise Filter Mode:   No Filter
Photon counted:               false
Data Averaging Filter Mode:   No Filter
SR193i:
Serial Number:                SR-2646
Wavelength (nm):              690
Grating Groove Density (l/mm):300
Grating Blaze:                500nm
Input Side Slit Width (um):   1000



478.32681	284
478.84332	311
479.35983	317
479.87631	321
480.39282	307
480.9093	349
481.42575	359
481.94223	322
482.45868	301
482.97513	344
483.49158	332
484.00803	317
484.52444	333
485.04086	335
485.55728	334
486.07367	328
486.59006	325
487.10645	351
487.62283	316
488.13919	344
488.65555	334
489.17191	340
489.68826	318
490.20459	346
490.72092	326
491.23724	344
491.75354	335
492.26984	331
492.78613	347
493.30243	338
493.8187	316
494.33496	326
494.85123	331
495.36746	336
495.8837	349
496.39993	338
496.91617	376
497.43237	349
497.94858	350
498.46478	372
498.98096	366
499.49713	367
500.01331	372
500.52945	345
501.04562	333
501.56174	373
502.07788	379
502.59399	352
503.11011	351
503.62622	349
504.1423	358
504.65839	352
505.17447	342
505.69052	343
506.20657	338
506.72263	358
507.23865	345
507.75467	362
508.27069	354
508.78668	347
509.30267	334
509.81866	336
510.33463	353
510.85059	357
511.36655	383
511.88248	345
512.39844	370
512.91437	339
513.43024	365
513.94617	337
514.46204	333
514.97791	353
515.49377	356
516.00964	340
516.52551	318
517.04132	356
517.55719	333
518.073	348
518.58881	338
519.10461	303
519.62036	342
520.13617	345
520.65192	346
521.16766	351
521.68341	378
522.1991	321
522.71484	340
523.23053	351
523.74622	351
524.2619	360
524.77759	348
525.29327	355
525.8089	337
526.32452	358
526.84015	357
527.35577	328
527.8714	338
528.38696	341
528.90259	331
529.41815	353
529.93372	346
530.44922	342
530.96478	366
531.48029	351
531.99579	347
532.51129	354
533.02679	356
533.5423	323
534.05774	352
534.57318	338
535.08862	357
535.60406	348
536.11945	352
536.63489	355
537.15027	313
537.66565	353
538.18097	352
538.69635	328
539.21167	350
539.72699	366
540.24231	339
540.75763	343
541.27289	336
541.78821	317
542.30347	336
542.81873	357
543.33392	319
543.84918	331
544.36438	350
544.87958	326
545.39478	348
545.90991	331
546.42511	348
546.94025	347
547.45538	332
547.97052	367
548.4856	324
549.00073	339
549.51581	337
550.03088	325
550.5459	338
551.06097	330
551.57599	325
552.091	311
552.60602	318
553.12097	309
553.63593	345
554.15094	317
554.66583	346
555.18079	314
555.69568	351
556.21063	305
556.72552	348
557.24036	345
557.75525	325
558.27008	338
558.78491	314
559.29974	326
559.81458	328
560.32935	351
560.84412	347
561.35889	337
561.87366	339
562.38837	336
562.90308	322
563.41779	329
563.9325	330
564.44714	329
564.96179	338
565.47644	320
565.99109	329
566.50574	334
567.02032	341
567.53491	346
568.0495	343
568.56403	325
569.07861	337
569.59314	312
570.1076	329
570.62213	340
571.1366	363
571.65106	324
572.16553	320
572.67999	332
573.1944	346
573.7088	341
574.22321	332
574.73755	305
575.25195	337
575.7663	339
576.28058	323
576.79492	327
577.3092	338
577.82349	329
578.33777	333
578.85205	293
579.36627	315
579.88049	341
580.39471	344
580.90887	349
581.42303	335
581.93719	332
582.45135	318
582.96545	348
583.47955	315
583.99365	346
584.50775	341
585.02179	329
585.53583	354
586.04987	342
586.5639	331
587.07788	331
587.59186	330
588.10583	353
588.61975	343
589.13373	329
589.64758	333
590.1615	343
590.67542	329
591.18927	325
591.70306	309
592.21692	319
592.73071	298
593.24451	337
593.7583	311
594.27209	318
594.78583	322
595.29956	323
595.81323	358
596.32697	326
596.84064	338
597.35425	322
597.86792	313
598.38153	317
598.89514	320
599.40875	313
599.9223	331
600.43585	323
600.9494	317
601.46289	317
601.97638	330
602.48987	319
603.00336	327
603.51678	334
604.03021	315
604.54364	310
605.05701	314
605.57043	335
606.08374	337
606.59711	334
607.11041	342
607.62372	314
608.13702	328
608.65027	310
609.16351	306
609.67676	315
610.19	335
610.70319	331
611.21637	332
611.72949	332
612.24268	320
612.75574	331
613.26886	319
613.78192	330
614.29504	329
614.80804	332
615.32111	326
615.83411	330
616.34711	348
616.86005	335
617.37299	330
617.88593	325
618.39886	316
618.91174	323
619.42462	321
619.9375	334
620.45032	338
620.96313	336
621.47595	311
621.98871	331
622.50146	324
623.01422	297
623.52692	320
624.03967	304
624.55231	337
625.065	341
625.57764	303
626.09027	330
626.60284	332
627.11542	328
627.62799	318
628.14056	317
628.65308	314
629.16559	336
629.6781	326
630.19055	317
630.703	328
631.21539	340
631.72784	308
632.24017	314
632.75256	314
633.26489	321
633.77722	332
634.28955	311
634.80182	299
635.31409	331
635.82635	339
636.33856	310
636.85077	343
637.36292	328
637.87512	312
638.38721	320
638.89935	326
639.41144	321
639.92352	330
640.43561	303
640.94763	345
641.45966	331
641.97162	350
642.48358	348
642.99554	342
643.50751	331
644.01941	325
644.53131	309
645.04315	312
645.55499	326
646.06683	335
646.57861	335
647.09045	326
647.60217	314
648.11395	335
648.62567	322
649.13733	329
649.64905	323
650.16064	321
650.6723	336
651.1839	318
651.6955	326
652.20709	311
652.71863	303
653.23016	304
653.74164	339
654.25311	324
654.76459	332
655.276	324
655.78741	329
656.29883	314
656.81018	343
657.32153	340
657.83289	332
658.34418	338
658.85547	316
659.3667	324
659.87793	333
660.38916	336
660.90033	322
661.4115	321
661.92267	326
662.43378	336
662.94489	296
663.45593	326
663.96698	335
664.47803	331
664.98907	324
665.50006	317
666.01099	343
666.52191	319
667.03284	312
667.54376	313
668.05463	311
668.56549	322
669.07629	317
669.5871	324
670.0979	324
670.60864	327
671.11938	310
671.63007	351
672.14075	337
672.65143	330
673.16205	320
673.67267	321
674.18329	310
674.69385	304
675.20435	316
675.7149	303
676.2254	323
676.73584	338
677.24628	321
677.75671	348
678.26715	324
678.77753	328
679.28784	294
679.79822	330
680.30847	321
680.81879	313
681.32904	305
681.83923	313
682.34949	332
682.85968	300
683.36981	323
683.87994	311
684.39008	333
684.90015	302
685.41022	333
685.92023	315
686.43024	343
686.94025	335
687.4502	340
687.96014	341
688.47003	301
688.97992	299
689.48981	334
689.99963	329
690.50946	320
691.01923	341
691.52899	320
692.03876	325
692.54846	308
693.05817	324
693.56781	327
694.07745	294
694.58704	309
695.09662	299
695.6062	318
696.11572	288
696.62524	324
697.1347	319
697.64417	302
698.15363	324
698.66302	319
699.17242	313
699.68176	328
700.1911	313
700.70044	334
701.20972	307
701.71893	292
702.22815	321
702.73737	326
703.24652	312
703.75568	306
704.26483	332
704.77393	315
705.28302	312
705.79205	325
706.30103	328
706.81006	315
707.31903	333
707.82794	308
708.33685	325
708.84576	316
709.35461	325
709.86346	342
710.37225	306
710.88104	313
711.38977	305
711.8985	319
712.40723	299
712.91589	322
713.42456	321
713.93317	330
714.44177	322
714.95032	325
715.45886	301
715.96735	325
716.47583	304
716.98431	340
717.49274	329
718.00116	338
718.50952	340
719.01788	305
719.52618	333
720.03448	320
720.54272	301
721.05096	314
721.5592	327
722.06738	321
722.57556	339
723.08368	307
723.59174	340
724.09985	326
724.60791	323
725.11591	940
725.6239	383
726.13184	312
726.63977	299
727.14771	319
727.65558	323
728.16339	327
728.67126	320
729.17902	913
729.68683	2102
730.19452	307
730.70227	315
731.2099	323
731.71759	333
732.22522	299
732.73279	333
733.24036	312
733.74792	302
734.25543	323
734.76288	306
735.27032	315
735.77777	310
736.28516	314
736.79254	318
737.29987	318
737.80719	913
738.31445	2084
738.82172	299
739.32892	298
739.83612	296
740.34326	324
740.8504	295
741.35748	329
741.86456	316
742.37164	321
742.87866	320
743.38562	313
743.89258	305
744.39954	312
744.90643	344
745.41327	310
745.9201	307
746.42694	302
746.93372	303
747.44049	323
747.9472	305
748.45386	326
748.96057	322
749.46716	307
749.97375	306
750.48035	302
750.98688	304
751.49341	328
751.99988	292
752.50635	312
753.01276	290
753.51917	326
754.02551	352
754.53186	340
755.03815	318
755.54443	320
756.05066	308
756.55688	318
757.06305	313
757.56921	305
758.07532	306
758.58142	309
759.08746	331
759.59351	311
760.09949	309
760.60547	322
761.11139	324
761.61725	302
762.12317	306
762.62897	318
763.13483	325
763.64056	320
764.1463	327
764.65204	303
765.15771	324
765.66339	299
766.16901	317
766.67462	319
767.18018	294
767.68567	298
768.19116	295
768.69666	309
769.20209	323
769.70746	308
770.21283	301
770.7182	332
771.22351	329
771.72876	324
772.23401	334
772.73926	312
773.24445	310
773.74957	327
774.2547	330
774.75977	314
775.26483	344
775.76984	322
776.27484	293
776.77979	298
777.28473	312
777.78961	326
778.29449	306
778.79932	313
779.30408	318
779.80884	312
780.3136	341
780.8183	319
781.32294	326
781.82758	300
782.33215	313
782.83673	316
783.34131	326
783.84576	330
784.35028	320
784.85468	319
785.35907	327
785.86346	316
786.3678	335
786.87213	306
787.3764	316
787.88062	312
788.38483	309
788.88898	320
789.39313	321
789.89722	318
790.40131	334
790.90533	316
791.40936	320
791.91333	296
792.4173	306
792.9212	296
793.42505	308
793.92889	312
794.43268	329
794.93646	333
795.44019	313
795.94391	316
796.44757	305
796.95123	301
797.45483	302
797.95837	325
798.46191	299
798.96539	297
799.46887	321
799.97235	306
800.47571	316
800.97906	321
801.48242	325
801.98572	321
802.48895	298
802.99219	300
803.49536	306
803.99854	326
804.50165	324
805.00476	310
805.50781	319
806.01086	303
806.51379	331
807.01678	317
807.51971	305
808.02258	329
808.52539	310
809.02826	321
809.53101	326
810.03375	321
810.53644	297
811.03912	321
811.54175	307
812.04437	320
812.54694	314
813.04944	321
813.55194	307
814.05444	320
814.55682	318
815.05927	304
815.56158	309
816.0639	334
816.56622	315
817.06842	322
817.57068	301
818.07281	323
818.57495	305
819.07709	330
819.57916	311
820.08118	315
820.58319	309
821.08514	307
821.5871	303
822.08899	323
822.59082	314
823.09265	306
823.59442	316
824.09619	330
824.5979	303
825.09955	321
825.6012	314
826.10278	303
826.60437	312
827.1059	316
827.60736	312
828.10883	325
828.61023	316
829.11163	324
829.61298	335
830.11432	335
830.61554	321
831.11682	316
831.61798	336
832.11914	330
832.6203	342
833.1214	319
833.62244	326
834.12347	323
834.62445	317
835.12537	319
835.62628	328
836.12714	309
836.62799	306
837.12878	329
837.62952	323
838.13025	317
838.63092	323
839.13153	343
839.63214	335
840.13275	298
840.63324	307
841.13373	296
841.63422	323
842.13464	316
842.63501	311
843.13538	320
843.63568	321
844.13593	313
844.63617	331
845.13635	323
845.63647	324
846.1366	326
846.63672	322
847.13672	326
847.63672	311
848.13672	318
848.6366	321
849.13647	313
849.63635	317
850.13617	312
850.63593	314
851.13568	303
851.63538	323
852.13501	335
852.63464	309
853.13422	323
853.63373	331
854.13324	297
854.63275	306
855.13214	311
855.63153	326
856.13086	319
856.63019	318
857.12946	306
857.62866	293
858.12787	317
858.62701	322
859.12616	328
859.62524	320
860.12427	296
860.62323	316
861.12219	330
861.62109	294
862.12	324
862.61884	320
863.11761	310
863.61639	296
864.11511	308
864.61377	316
865.11243	325
865.61102	312
866.10962	312
866.60809	320
867.10663	297
867.60504	308
868.10345	328
868.60181	329
869.10016	315
869.59839	302
870.09668	338
870.59485	346
871.09302	358
871.59113	381
872.08923	427
872.58728	447
873.08527	438
873.58325	485
874.08118	443
874.57904	440
875.0769	441
875.57465	434
876.07245	465
876.57013	429
877.06781	457
877.56549	447
878.06305	486
878.56061	442
879.05817	467
879.5556	452
880.05304	479
880.55042	467
881.04779	468
881.5451	471
882.04236	473
882.53961	450
883.0368	458
883.53394	490
884.03107	441
884.52808	476
885.02515	474
