Date and Time:                Sat Oct 18 09:26:31.216 2025
Software Version:             4.30.30000.0
Unstabilized Temperature (C): -88.982
Model:                        DU971P_UVB
Data Type:                    Counts
Acquisition Mode:             Single Scan
Trigger Mode:                 Internal
Exposure Time (secs):         30
Readout Mode:                 Full Vertical Binning
Horizontal binning:           2
Extended Dynamic Range:       off
Horizontally flipped:         false
Vertical Shift Speed (usecs): 9.68
Pixel Readout Rate (MHz):     3
Baseline Clamp:               ON
Clock Amplitude:              Normal
Output Amplifier:             Conventional
Serial Number:                20367
Pre-Amplifier Gain:           4x
Spurious Noise Filter Mode:   No Filter
Photon counted:               false
Data Averaging Filter Mode:   No Filter
SR193i:
Serial Number:                SR-2646
Wavelength (nm):              690
Grating Groove Density (l/mm):300
Grating Blaze:                500nm
Input Side Slit Width (um):   1000



478.32681	279
478.84332	315
479.35983	297
479.87631	323
480.39282	313
480.9093	324
481.42575	311
481.94223	306
482.45868	299
482.97513	320
483.49158	320
484.00803	326
484.52444	303
485.04086	309
485.55728	325
486.07367	307
486.59006	311
487.10645	333
487.62283	329
488.13919	314
488.65555	319
489.17191	305
489.68826	318
490.20459	311
490.72092	290
491.23724	338
491.75354	332
492.26984	321
492.78613	337
493.30243	296
493.8187	342
494.33496	307
494.85123	310
495.36746	314
495.8837	317
496.39993	330
496.91617	321
497.43237	338
497.94858	312
498.46478	315
498.98096	299
499.49713	303
500.01331	308
500.52945	321
501.04562	329
501.56174	311
502.07788	338
502.59399	294
503.11011	314
503.62622	326
504.1423	300
504.65839	323
505.17447	315
505.69052	327
506.20657	319
506.72263	323
507.23865	331
507.75467	319
508.27069	307
508.78668	329
509.30267	309
509.81866	313
510.33463	326
510.85059	334
511.36655	329
511.88248	318
512.39844	323
512.91437	324
513.43024	292
513.94617	309
514.46204	317
514.97791	287
515.49377	334
516.00964	307
516.52551	323
517.04132	305
517.55719	307
518.073	292
518.58881	325
519.10461	305
519.62036	306
520.13617	322
520.65192	330
521.16766	324
521.68341	327
522.1991	331
522.71484	322
523.23053	304
523.74622	309
524.2619	321
524.77759	330
525.29327	297
525.8089	310
526.32452	299
526.84015	322
527.35577	314
527.8714	305
528.38696	306
528.90259	321
529.41815	297
529.93372	293
530.44922	340
530.96478	327
531.48029	320
531.99579	300
532.51129	314
533.02679	292
533.5423	322
534.05774	309
534.57318	328
535.08862	323
535.60406	321
536.11945	320
536.63489	302
537.15027	339
537.66565	322
538.18097	338
538.69635	307
539.21167	322
539.72699	307
540.24231	323
540.75763	328
541.27289	334
541.78821	334
542.30347	314
542.81873	308
543.33392	336
543.84918	339
544.36438	301
544.87958	294
545.39478	323
545.90991	319
546.42511	318
546.94025	305
547.45538	314
547.97052	322
548.4856	318
549.00073	328
549.51581	314
550.03088	310
550.5459	300
551.06097	299
551.57599	310
552.091	348
552.60602	327
553.12097	305
553.63593	332
554.15094	299
554.66583	303
555.18079	322
555.69568	329
556.21063	297
556.72552	327
557.24036	324
557.75525	303
558.27008	329
558.78491	330
559.29974	303
559.81458	313
560.32935	316
560.84412	326
561.35889	315
561.87366	301
562.38837	317
562.90308	329
563.41779	303
563.9325	331
564.44714	304
564.96179	323
565.47644	314
565.99109	327
566.50574	340
567.02032	330
567.53491	306
568.0495	324
568.56403	336
569.07861	318
569.59314	298
570.1076	297
570.62213	316
571.1366	336
571.65106	319
572.16553	322
572.67999	308
573.1944	302
573.7088	323
574.22321	308
574.73755	300
575.25195	306
575.7663	314
576.28058	325
576.79492	325
577.3092	297
577.82349	315
578.33777	333
578.85205	316
579.36627	315
579.88049	313
580.39471	309
580.90887	325
581.42303	313
581.93719	320
582.45135	323
582.96545	308
583.47955	332
583.99365	315
584.50775	313
585.02179	325
585.53583	316
586.04987	330
586.5639	310
587.07788	331
587.59186	318
588.10583	311
588.61975	301
589.13373	331
589.64758	308
590.1615	311
590.67542	326
591.18927	306
591.70306	320
592.21692	334
592.73071	309
593.24451	313
593.7583	316
594.27209	300
594.78583	308
595.29956	307
595.81323	306
596.32697	334
596.84064	297
597.35425	317
597.86792	318
598.38153	328
598.89514	311
599.40875	311
599.9223	323
600.43585	291
600.9494	317
601.46289	323
601.97638	294
602.48987	310
603.00336	328
603.51678	332
604.03021	315
604.54364	317
605.05701	347
605.57043	296
606.08374	315
606.59711	309
607.11041	311
607.62372	289
608.13702	327
608.65027	346
609.16351	323
609.67676	302
610.19	332
610.70319	329
611.21637	321
611.72949	317
612.24268	327
612.75574	310
613.26886	329
613.78192	312
614.29504	320
614.80804	318
615.32111	302
615.83411	334
616.34711	322
616.86005	311
617.37299	316
617.88593	311
618.39886	312
618.91174	320
619.42462	305
619.9375	288
620.45032	316
620.96313	316
621.47595	318
621.98871	301
622.50146	325
623.01422	312
623.52692	333
624.03967	318
624.55231	301
625.065	321
625.57764	327
626.09027	335
626.60284	321
627.11542	310
627.62799	311
628.14056	325
628.65308	309
629.16559	312
629.6781	310
630.19055	312
630.703	315
631.21539	317
631.72784	310
632.24017	309
632.75256	328
633.26489	336
633.77722	303
634.28955	321
634.80182	333
635.31409	313
635.82635	315
636.33856	323
636.85077	1178
637.36292	322
637.87512	335
638.38721	313
638.89935	312
639.41144	329
639.92352	320
640.43561	318
640.94763	300
641.45966	331
641.97162	325
642.48358	299
642.99554	307
643.50751	298
644.01941	322
644.53131	310
645.04315	326
645.55499	334
646.06683	309
646.57861	300
647.09045	307
647.60217	337
648.11395	307
648.62567	324
649.13733	294
649.64905	324
650.16064	350
650.6723	328
651.1839	312
651.6955	316
652.20709	313
652.71863	324
653.23016	338
653.74164	320
654.25311	319
654.76459	318
655.276	323
655.78741	321
656.29883	321
656.81018	304
657.32153	317
657.83289	318
658.34418	320
658.85547	328
659.3667	294
659.87793	323
660.38916	319
660.90033	310
661.4115	307
661.92267	290
662.43378	316
662.94489	326
663.45593	296
663.96698	283
664.47803	318
664.98907	315
665.50006	302
666.01099	301
666.52191	304
667.03284	319
667.54376	328
668.05463	327
668.56549	299
669.07629	316
669.5871	331
670.0979	319
670.60864	306
671.11938	327
671.63007	304
672.14075	317
672.65143	323
673.16205	303
673.67267	310
674.18329	306
674.69385	310
675.20435	301
675.7149	310
676.2254	311
676.73584	314
677.24628	315
677.75671	312
678.26715	327
678.77753	301
679.28784	287
679.79822	316
680.30847	306
680.81879	314
681.32904	301
681.83923	316
682.34949	320
682.85968	325
683.36981	345
683.87994	293
684.39008	301
684.90015	315
685.41022	314
685.92023	305
686.43024	308
686.94025	329
687.4502	304
687.96014	335
688.47003	319
688.97992	306
689.48981	297
689.99963	309
690.50946	294
691.01923	326
691.52899	314
692.03876	330
692.54846	328
693.05817	318
693.56781	317
694.07745	322
694.58704	305
695.09662	319
695.6062	342
696.11572	318
696.62524	325
697.1347	336
697.64417	315
698.15363	323
698.66302	325
699.17242	323
699.68176	307
700.1911	322
700.70044	300
701.20972	324
701.71893	315
702.22815	305
702.73737	319
703.24652	319
703.75568	315
704.26483	319
704.77393	316
705.28302	316
705.79205	296
706.30103	314
706.81006	311
707.31903	314
707.82794	298
708.33685	312
708.84576	296
709.35461	328
709.86346	321
710.37225	283
710.88104	329
711.38977	335
711.8985	323
712.40723	316
712.91589	328
713.42456	325
713.93317	326
714.44177	323
714.95032	315
715.45886	315
715.96735	298
716.47583	336
716.98431	302
717.49274	309
718.00116	320
718.50952	327
719.01788	323
719.52618	309
720.03448	328
720.54272	313
721.05096	332
721.5592	295
722.06738	288
722.57556	317
723.08368	325
723.59174	323
724.09985	318
724.60791	313
725.11591	304
725.6239	319
726.13184	327
726.63977	335
727.14771	326
727.65558	323
728.16339	316
728.67126	296
729.17902	318
729.68683	325
730.19452	327
730.70227	317
731.2099	338
731.71759	301
732.22522	315
732.73279	322
733.24036	304
733.74792	324
734.25543	298
734.76288	308
735.27032	316
735.77777	332
736.28516	320
736.79254	313
737.29987	313
737.80719	309
738.31445	319
738.82172	314
739.32892	321
739.83612	318
740.34326	291
740.8504	315
741.35748	319
741.86456	312
742.37164	292
742.87866	310
743.38562	312
743.89258	305
744.39954	312
744.90643	327
745.41327	327
745.9201	316
746.42694	302
746.93372	309
747.44049	305
747.9472	322
748.45386	300
748.96057	316
749.46716	323
749.97375	315
750.48035	320
750.98688	328
751.49341	302
751.99988	317
752.50635	323
753.01276	321
753.51917	306
754.02551	327
754.53186	312
755.03815	301
755.54443	302
756.05066	334
756.55688	301
757.06305	335
757.56921	308
758.07532	327
758.58142	302
759.08746	305
759.59351	306
760.09949	319
760.60547	321
761.11139	320
761.61725	300
762.12317	331
762.62897	326
763.13483	317
763.64056	297
764.1463	308
764.65204	320
765.15771	307
765.66339	315
766.16901	301
766.67462	313
767.18018	326
767.68567	311
768.19116	331
768.69666	315
769.20209	289
769.70746	330
770.21283	290
770.7182	320
771.22351	337
771.72876	317
772.23401	328
772.73926	308
773.24445	322
773.74957	313
774.2547	305
774.75977	331
775.26483	318
775.76984	311
776.27484	310
776.77979	306
777.28473	305
777.78961	298
778.29449	307
778.79932	311
779.30408	326
779.80884	320
780.3136	319
780.8183	327
781.32294	330
781.82758	322
782.33215	336
782.83673	317
783.34131	286
783.84576	321
784.35028	322
784.85468	319
785.35907	329
785.86346	330
786.3678	320
786.87213	298
787.3764	325
787.88062	304
788.38483	336
788.88898	311
789.39313	334
789.89722	310
790.40131	306
790.90533	321
791.40936	312
791.91333	315
792.4173	307
792.9212	326
793.42505	314
793.92889	324
794.43268	329
794.93646	332
795.44019	320
795.94391	308
796.44757	327
796.95123	326
797.45483	312
797.95837	306
798.46191	327
798.96539	327
799.46887	307
799.97235	320
800.47571	328
800.97906	311
801.48242	315
801.98572	322
802.48895	323
802.99219	321
803.49536	318
803.99854	313
804.50165	304
805.00476	319
805.50781	317
806.01086	315
806.51379	305
807.01678	290
807.51971	335
808.02258	313
808.52539	310
809.02826	311
809.53101	311
810.03375	336
810.53644	326
811.03912	337
811.54175	325
812.04437	300
812.54694	312
813.04944	311
813.55194	329
814.05444	327
814.55682	322
815.05927	325
815.56158	317
816.0639	329
816.56622	315
817.06842	311
817.57068	328
818.07281	289
818.57495	309
819.07709	316
819.57916	318
820.08118	326
820.58319	330
821.08514	322
821.5871	325
822.08899	308
822.59082	312
823.09265	334
823.59442	314
824.09619	315
824.5979	328
825.09955	301
825.6012	331
826.10278	330
826.60437	338
827.1059	302
827.60736	301
828.10883	325
828.61023	340
829.11163	331
829.61298	332
830.11432	306
830.61554	318
831.11682	325
831.61798	295
832.11914	323
832.6203	320
833.1214	309
833.62244	310
834.12347	311
834.62445	309
835.12537	330
835.62628	331
836.12714	307
836.62799	300
837.12878	329
837.62952	322
838.13025	311
838.63092	326
839.13153	311
839.63214	326
840.13275	331
840.63324	323
841.13373	320
841.63422	304
842.13464	321
842.63501	323
843.13538	322
843.63568	316
844.13593	325
844.63617	320
845.13635	315
845.63647	322
846.1366	318
846.63672	317
847.13672	305
847.63672	313
848.13672	314
848.6366	302
849.13647	321
849.63635	320
850.13617	308
850.63593	315
851.13568	309
851.63538	326
852.13501	313
852.63464	323
853.13422	304
853.63373	338
854.13324	351
854.63275	322
855.13214	333
855.63153	303
856.13086	320
856.63019	338
857.12946	304
857.62866	326
858.12787	302
858.62701	337
859.12616	318
859.62524	304
860.12427	322
860.62323	314
861.12219	313
861.62109	323
862.12	320
862.61884	303
863.11761	320
863.61639	316
864.11511	325
864.61377	318
865.11243	304
865.61102	306
866.10962	305
866.60809	323
867.10663	329
867.60504	333
868.10345	323
868.60181	327
869.10016	339
869.59839	301
870.09668	340
870.59485	310
871.09302	314
871.59113	331
872.08923	325
872.58728	321
873.08527	325
873.58325	318
874.08118	319
874.57904	333
875.0769	318
875.57465	326
876.07245	320
876.57013	310
877.06781	315
877.56549	322
878.06305	317
878.56061	327
879.05817	299
879.5556	318
880.05304	305
880.55042	309
881.04779	316
881.5451	310
882.04236	317
882.53961	304
883.0368	323
883.53394	319
884.03107	329
884.52808	306
885.02515	334
