Date and Time:                Sat Oct 18 08:11:37.499 2025
Software Version:             4.30.30000.0
Unstabilized Temperature (C): -89.631
Model:                        DU971P_UVB
Data Type:                    Counts
Acquisition Mode:             Single Scan
Trigger Mode:                 Internal
Exposure Time (secs):         30
Readout Mode:                 Full Vertical Binning
Horizontal binning:           2
Extended Dynamic Range:       off
Horizontally flipped:         false
Vertical Shift Speed (usecs): 9.68
Pixel Readout Rate (MHz):     3
Baseline Clamp:               ON
Clock Amplitude:              Normal
Output Amplifier:             Conventional
Serial Number:                20367
Pre-Amplifier Gain:           4x
Spurious Noise Filter Mode:   No Filter
Photon counted:               false
Data Averaging Filter Mode:   No Filter
SR193i:
Serial Number:                SR-2646
Wavelength (nm):              690
Grating Groove Density (l/mm):300
Grating Blaze:                500nm
Input Side Slit Width (um):   1000



478.32681	264
478.84332	306
479.35983	321
479.87631	285
480.39282	315
480.9093	313
481.42575	299
481.94223	319
482.45868	320
482.97513	337
483.49158	320
484.00803	319
484.52444	320
485.04086	331
485.55728	330
486.07367	312
486.59006	312
487.10645	321
487.62283	335
488.13919	305
488.65555	310
489.17191	327
489.68826	317
490.20459	336
490.72092	318
491.23724	328
491.75354	320
492.26984	322
492.78613	314
493.30243	317
493.8187	307
494.33496	319
494.85123	324
495.36746	277
495.8837	319
496.39993	326
496.91617	303
497.43237	315
497.94858	332
498.46478	309
498.98096	306
499.49713	313
500.01331	325
500.52945	302
501.04562	324
501.56174	308
502.07788	307
502.59399	324
503.11011	305
503.62622	330
504.1423	303
504.65839	312
505.17447	306
505.69052	331
506.20657	322
506.72263	315
507.23865	317
507.75467	301
508.27069	316
508.78668	329
509.30267	330
509.81866	318
510.33463	300
510.85059	309
511.36655	313
511.88248	299
512.39844	303
512.91437	311
513.43024	309
513.94617	317
514.46204	317
514.97791	318
515.49377	326
516.00964	299
516.52551	317
517.04132	328
517.55719	296
518.073	315
518.58881	315
519.10461	324
519.62036	320
520.13617	311
520.65192	322
521.16766	311
521.68341	311
522.1991	289
522.71484	298
523.23053	313
523.74622	318
524.2619	326
524.77759	310
525.29327	315
525.8089	314
526.32452	301
526.84015	310
527.35577	311
527.8714	320
528.38696	318
528.90259	313
529.41815	326
529.93372	307
530.44922	310
530.96478	340
531.48029	300
531.99579	321
532.51129	330
533.02679	305
533.5423	316
534.05774	342
534.57318	323
535.08862	306
535.60406	305
536.11945	329
536.63489	315
537.15027	307
537.66565	306
538.18097	321
538.69635	303
539.21167	322
539.72699	302
540.24231	323
540.75763	298
541.27289	314
541.78821	317
542.30347	318
542.81873	297
543.33392	319
543.84918	306
544.36438	339
544.87958	312
545.39478	307
545.90991	323
546.42511	332
546.94025	317
547.45538	329
547.97052	343
548.4856	319
549.00073	315
549.51581	318
550.03088	332
550.5459	318
551.06097	317
551.57599	304
552.091	309
552.60602	324
553.12097	300
553.63593	314
554.15094	324
554.66583	316
555.18079	300
555.69568	295
556.21063	298
556.72552	313
557.24036	314
557.75525	307
558.27008	304
558.78491	326
559.29974	323
559.81458	320
560.32935	328
560.84412	308
561.35889	299
561.87366	317
562.38837	314
562.90308	322
563.41779	314
563.9325	323
564.44714	323
564.96179	329
565.47644	317
565.99109	295
566.50574	324
567.02032	305
567.53491	310
568.0495	318
568.56403	338
569.07861	313
569.59314	296
570.1076	316
570.62213	320
571.1366	302
571.65106	303
572.16553	307
572.67999	313
573.1944	289
573.7088	330
574.22321	318
574.73755	302
575.25195	307
575.7663	314
576.28058	312
576.79492	326
577.3092	331
577.82349	311
578.33777	326
578.85205	336
579.36627	327
579.88049	309
580.39471	311
580.90887	309
581.42303	310
581.93719	322
582.45135	288
582.96545	308
583.47955	329
583.99365	307
584.50775	308
585.02179	300
585.53583	306
586.04987	318
586.5639	313
587.07788	327
587.59186	344
588.10583	323
588.61975	309
589.13373	302
589.64758	318
590.1615	329
590.67542	314
591.18927	332
591.70306	319
592.21692	343
592.73071	316
593.24451	297
593.7583	326
594.27209	291
594.78583	315
595.29956	301
595.81323	305
596.32697	310
596.84064	304
597.35425	304
597.86792	325
598.38153	298
598.89514	310
599.40875	313
599.9223	346
600.43585	319
600.9494	312
601.46289	309
601.97638	328
602.48987	296
603.00336	313
603.51678	305
604.03021	331
604.54364	333
605.05701	298
605.57043	316
606.08374	306
606.59711	325
607.11041	304
607.62372	325
608.13702	314
608.65027	319
609.16351	301
609.67676	307
610.19	309
610.70319	319
611.21637	312
611.72949	320
612.24268	273
612.75574	332
613.26886	322
613.78192	313
614.29504	278
614.80804	318
615.32111	326
615.83411	328
616.34711	317
616.86005	322
617.37299	312
617.88593	341
618.39886	328
618.91174	324
619.42462	324
619.9375	313
620.45032	304
620.96313	312
621.47595	332
621.98871	332
622.50146	903
623.01422	1351
623.52692	302
624.03967	322
624.55231	319
625.065	326
625.57764	312
626.09027	315
626.60284	303
627.11542	325
627.62799	307
628.14056	279
628.65308	317
629.16559	328
629.6781	320
630.19055	303
630.703	344
631.21539	309
631.72784	326
632.24017	312
632.75256	311
633.26489	307
633.77722	317
634.28955	309
634.80182	342
635.31409	320
635.82635	301
636.33856	303
636.85077	314
637.36292	304
637.87512	321
638.38721	315
638.89935	301
639.41144	324
639.92352	303
640.43561	317
640.94763	346
641.45966	332
641.97162	317
642.48358	295
642.99554	306
643.50751	331
644.01941	313
644.53131	304
645.04315	341
645.55499	332
646.06683	301
646.57861	317
647.09045	327
647.60217	310
648.11395	310
648.62567	313
649.13733	298
649.64905	316
650.16064	303
650.6723	316
651.1839	319
651.6955	316
652.20709	318
652.71863	305
653.23016	310
653.74164	313
654.25311	340
654.76459	320
655.276	322
655.78741	295
656.29883	318
656.81018	292
657.32153	329
657.83289	313
658.34418	301
658.85547	307
659.3667	319
659.87793	322
660.38916	316
660.90033	328
661.4115	328
661.92267	324
662.43378	300
662.94489	315
663.45593	317
663.96698	307
664.47803	318
664.98907	292
665.50006	314
666.01099	327
666.52191	309
667.03284	313
667.54376	334
668.05463	312
668.56549	306
669.07629	318
669.5871	325
670.0979	319
670.60864	331
671.11938	321
671.63007	309
672.14075	295
672.65143	326
673.16205	311
673.67267	303
674.18329	322
674.69385	326
675.20435	311
675.7149	331
676.2254	300
676.73584	311
677.24628	302
677.75671	315
678.26715	318
678.77753	295
679.28784	317
679.79822	321
680.30847	309
680.81879	309
681.32904	304
681.83923	313
682.34949	286
682.85968	326
683.36981	299
683.87994	323
684.39008	299
684.90015	313
685.41022	309
685.92023	314
686.43024	295
686.94025	324
687.4502	312
687.96014	299
688.47003	311
688.97992	300
689.48981	312
689.99963	302
690.50946	302
691.01923	325
691.52899	309
692.03876	324
692.54846	324
693.05817	304
693.56781	313
694.07745	311
694.58704	310
695.09662	305
695.6062	325
696.11572	325
696.62524	321
697.1347	327
697.64417	297
698.15363	297
698.66302	307
699.17242	309
699.68176	313
700.1911	288
700.70044	306
701.20972	301
701.71893	301
702.22815	312
702.73737	317
703.24652	327
703.75568	305
704.26483	318
704.77393	327
705.28302	313
705.79205	298
706.30103	330
706.81006	297
707.31903	312
707.82794	330
708.33685	303
708.84576	305
709.35461	320
709.86346	314
710.37225	326
710.88104	313
711.38977	295
711.8985	312
712.40723	304
712.91589	313
713.42456	309
713.93317	320
714.44177	311
714.95032	319
715.45886	309
715.96735	310
716.47583	303
716.98431	308
717.49274	313
718.00116	309
718.50952	313
719.01788	299
719.52618	294
720.03448	310
720.54272	315
721.05096	309
721.5592	318
722.06738	311
722.57556	304
723.08368	332
723.59174	301
724.09985	321
724.60791	317
725.11591	317
725.6239	311
726.13184	319
726.63977	308
727.14771	277
727.65558	319
728.16339	301
728.67126	304
729.17902	314
729.68683	306
730.19452	312
730.70227	322
731.2099	311
731.71759	301
732.22522	323
732.73279	314
733.24036	308
733.74792	313
734.25543	332
734.76288	295
735.27032	297
735.77777	309
736.28516	332
736.79254	315
737.29987	301
737.80719	317
738.31445	324
738.82172	320
739.32892	295
739.83612	321
740.34326	298
740.8504	307
741.35748	301
741.86456	310
742.37164	306
742.87866	315
743.38562	293
743.89258	306
744.39954	316
744.90643	322
745.41327	323
745.9201	331
746.42694	297
746.93372	339
747.44049	329
747.9472	321
748.45386	329
748.96057	323
749.46716	288
749.97375	337
750.48035	309
750.98688	334
751.49341	302
751.99988	333
752.50635	311
753.01276	297
753.51917	315
754.02551	314
754.53186	298
755.03815	293
755.54443	306
756.05066	309
756.55688	325
757.06305	306
757.56921	327
758.07532	303
758.58142	310
759.08746	330
759.59351	305
760.09949	300
760.60547	321
761.11139	328
761.61725	299
762.12317	303
762.62897	313
763.13483	324
763.64056	328
764.1463	317
764.65204	297
765.15771	316
765.66339	324
766.16901	313
766.67462	308
767.18018	312
767.68567	323
768.19116	323
768.69666	311
769.20209	306
769.70746	327
770.21283	303
770.7182	321
771.22351	283
771.72876	324
772.23401	305
772.73926	325
773.24445	333
773.74957	315
774.2547	309
774.75977	312
775.26483	306
775.76984	304
776.27484	298
776.77979	309
777.28473	317
777.78961	320
778.29449	333
778.79932	327
779.30408	324
779.80884	320
780.3136	306
780.8183	305
781.32294	311
781.82758	309
782.33215	311
782.83673	333
783.34131	312
783.84576	297
784.35028	304
784.85468	321
785.35907	306
785.86346	310
786.3678	313
786.87213	310
787.3764	315
787.88062	302
788.38483	333
788.88898	311
789.39313	291
789.89722	341
790.40131	283
790.90533	306
791.40936	327
791.91333	305
792.4173	311
792.9212	336
793.42505	327
793.92889	314
794.43268	320
794.93646	323
795.44019	313
795.94391	308
796.44757	311
796.95123	305
797.45483	333
797.95837	312
798.46191	322
798.96539	299
799.46887	318
799.97235	333
800.47571	303
800.97906	317
801.48242	300
801.98572	317
802.48895	328
802.99219	315
803.49536	332
803.99854	317
804.50165	323
805.00476	321
805.50781	300
806.01086	325
806.51379	324
807.01678	292
807.51971	303
808.02258	309
808.52539	322
809.02826	319
809.53101	324
810.03375	314
810.53644	324
811.03912	316
811.54175	312
812.04437	307
812.54694	300
813.04944	312
813.55194	300
814.05444	306
814.55682	324
815.05927	323
815.56158	302
816.0639	312
816.56622	324
817.06842	327
817.57068	312
818.07281	317
818.57495	346
819.07709	290
819.57916	310
820.08118	300
820.58319	323
821.08514	316
821.5871	323
822.08899	315
822.59082	310
823.09265	297
823.59442	314
824.09619	317
824.5979	325
825.09955	327
825.6012	313
826.10278	305
826.60437	320
827.1059	322
827.60736	309
828.10883	307
828.61023	330
829.11163	324
829.61298	307
830.11432	311
830.61554	299
831.11682	330
831.61798	330
832.11914	313
832.6203	299
833.1214	332
833.62244	327
834.12347	325
834.62445	300
835.12537	324
835.62628	308
836.12714	313
836.62799	328
837.12878	313
837.62952	325
838.13025	281
838.63092	322
839.13153	316
839.63214	323
840.13275	326
840.63324	298
841.13373	317
841.63422	307
842.13464	314
842.63501	325
843.13538	318
843.63568	303
844.13593	293
844.63617	288
845.13635	327
845.63647	303
846.1366	325
846.63672	316
847.13672	316
847.63672	302
848.13672	324
848.6366	313
849.13647	332
849.63635	298
850.13617	304
850.63593	324
851.13568	309
851.63538	314
852.13501	307
852.63464	319
853.13422	322
853.63373	311
854.13324	293
854.63275	304
855.13214	315
855.63153	330
856.13086	328
856.63019	310
857.12946	329
857.62866	309
858.12787	296
858.62701	309
859.12616	321
859.62524	317
860.12427	327
860.62323	313
861.12219	298
861.62109	301
862.12	313
862.61884	299
863.11761	333
863.61639	316
864.11511	300
864.61377	325
865.11243	304
865.61102	310
866.10962	326
866.60809	324
867.10663	329
867.60504	345
868.10345	318
868.60181	316
869.10016	345
869.59839	291
870.09668	316
870.59485	312
871.09302	319
871.59113	321
872.08923	306
872.58728	321
873.08527	317
873.58325	303
874.08118	317
874.57904	306
875.0769	319
875.57465	309
876.07245	293
876.57013	306
877.06781	312
877.56549	321
878.06305	324
878.56061	308
879.05817	330
879.5556	320
880.05304	325
880.55042	315
881.04779	327
881.5451	314
882.04236	297
882.53961	328
883.0368	319
883.53394	318
884.03107	296
884.52808	321
885.02515	303
