Date and Time:                Sat Oct 18 13:28:00.436 2025
Software Version:             4.30.30000.0
Temperature (C):              -90
Model:                        DU971P_UVB
Data Type:                    Counts
Acquisition Mode:             Single Scan
Trigger Mode:                 Internal
Exposure Time (secs):         0.5
Readout Mode:                 Full Vertical Binning
Horizontal binning:           2
Extended Dynamic Range:       off
Horizontally flipped:         false
Vertical Shift Speed (usecs): 9.68
Pixel Readout Rate (MHz):     3
Baseline Clamp:               ON
Clock Amplitude:              Normal
Output Amplifier:             Conventional
Serial Number:                20367
Pre-Amplifier Gain:           4x
Spurious Noise Filter Mode:   No Filter
Photon counted:               false
Data Averaging Filter Mode:   No Filter
SR193i:
Serial Number:                SR-2646
Wavelength (nm):              690
Grating Groove Density (l/mm):300
Grating Blaze:                500nm
Input Side Slit Width (um):   1000



478.32681	254
478.84332	322
479.35983	302
479.87631	331
480.39282	321
480.9093	332
481.42575	330
481.94223	322
482.45868	322
482.97513	342
483.49158	324
484.00803	356
484.52444	415
485.04086	456
485.55728	476
486.07367	506
486.59006	571
487.10645	604
487.62283	596
488.13919	738
488.65555	720
489.17191	812
489.68826	815
490.20459	873
490.72092	964
491.23724	927
491.75354	1002
492.26984	1124
492.78613	1191
493.30243	1146
493.8187	1212
494.33496	1302
494.85123	1373
495.36746	1432
495.8837	1522
496.39993	1545
496.91617	1632
497.43237	1691
497.94858	1875
498.46478	1832
498.98096	2083
499.49713	1993
500.01331	2115
500.52945	2265
501.04562	2369
501.56174	2649
502.07788	2680
502.59399	3017
503.11011	3260
503.62622	3565
504.1423	3935
504.65839	4530
505.17447	4867
505.69052	5575
506.20657	6017
506.72263	6743
507.23865	7574
507.75467	8281
508.27069	9262
508.78668	10224
509.30267	11247
509.81866	12294
510.33463	13354
510.85059	14569
511.36655	15468
511.88248	16725
512.39844	17283
512.91437	17768
513.43024	18621
513.94617	19162
514.46204	19791
514.97791	19814
515.49377	20046
516.00964	20477
516.52551	20319
517.04132	20177
517.55719	19862
518.073	19809
518.58881	19658
519.10461	19281
519.62036	18467
520.13617	17981
520.65192	17123
521.16766	17160
521.68341	15837
522.1991	15204
522.71484	14480
523.23053	13888
523.74622	12756
524.2619	11598
524.77759	10719
525.29327	9600
525.8089	8597
526.32452	7568
526.84015	6862
527.35577	5873
527.8714	5395
528.38696	4716
528.90259	4186
529.41815	3746
529.93372	3410
530.44922	2855
530.96478	2874
531.48029	2663
531.99579	2453
532.51129	2441
533.02679	2247
533.5423	2301
534.05774	2259
534.57318	2306
535.08862	2159
535.60406	2253
536.11945	2198
536.63489	2177
537.15027	2153
537.66565	2057
538.18097	1999
538.69635	1944
539.21167	1897
539.72699	1813
540.24231	1902
540.75763	1756
541.27289	1811
541.78821	1745
542.30347	1772
542.81873	1656
543.33392	1622
543.84918	1596
544.36438	1591
544.87958	1523
545.39478	1529
545.90991	1487
546.42511	1457
546.94025	1459
547.45538	1408
547.97052	1488
548.4856	1383
549.00073	1395
549.51581	1374
550.03088	1394
550.5459	1321
551.06097	1392
551.57599	1296
552.091	1330
552.60602	1227
553.12097	1303
553.63593	1210
554.15094	1285
554.66583	1335
555.18079	1223
555.69568	1299
556.21063	1261
556.72552	1330
557.24036	1184
557.75525	1192
558.27008	1231
558.78491	1123
559.29974	1125
559.81458	1205
560.32935	1158
560.84412	1130
561.35889	1146
561.87366	1111
562.38837	1118
562.90308	1119
563.41779	1105
563.9325	1069
564.44714	1073
564.96179	1095
565.47644	1093
565.99109	1093
566.50574	1090
567.02032	1059
567.53491	1077
568.0495	1034
568.56403	1094
569.07861	1039
569.59314	1031
570.1076	1065
570.62213	978
571.1366	961
571.65106	1030
572.16553	1009
572.67999	955
573.1944	1019
573.7088	1012
574.22321	949
574.73755	922
575.25195	978
575.7663	916
576.28058	912
576.79492	916
577.3092	891
577.82349	923
578.33777	945
578.85205	921
579.36627	882
579.88049	851
580.39471	906
580.90887	839
581.42303	980
581.93719	892
582.45135	887
582.96545	882
583.47955	858
583.99365	848
584.50775	898
585.02179	838
585.53583	799
586.04987	826
586.5639	823
587.07788	765
587.59186	766
588.10583	799
588.61975	768
589.13373	816
589.64758	753
590.1615	833
590.67542	765
591.18927	780
591.70306	777
592.21692	758
592.73071	769
593.24451	791
593.7583	783
594.27209	765
594.78583	757
595.29956	712
595.81323	715
596.32697	726
596.84064	725
597.35425	744
597.86792	708
598.38153	733
598.89514	690
599.40875	704
599.9223	695
600.43585	679
600.9494	723
601.46289	662
601.97638	673
602.48987	660
603.00336	659
603.51678	626
604.03021	612
604.54364	670
605.05701	647
605.57043	640
606.08374	605
606.59711	647
607.11041	661
607.62372	632
608.13702	659
608.65027	664
609.16351	604
609.67676	604
610.19	632
610.70319	587
611.21637	615
611.72949	663
612.24268	636
612.75574	611
613.26886	627
613.78192	597
614.29504	604
614.80804	601
615.32111	571
615.83411	584
616.34711	574
616.86005	588
617.37299	619
617.88593	552
618.39886	554
618.91174	572
619.42462	572
619.9375	533
620.45032	569
620.96313	569
621.47595	586
621.98871	538
622.50146	561
623.01422	574
623.52692	549
624.03967	554
624.55231	547
625.065	551
625.57764	540
626.09027	522
626.60284	567
627.11542	510
627.62799	555
628.14056	558
628.65308	529
629.16559	499
629.6781	519
630.19055	515
630.703	531
631.21539	526
631.72784	506
632.24017	535
632.75256	540
633.26489	489
633.77722	478
634.28955	522
634.80182	463
635.31409	484
635.82635	515
636.33856	505
636.85077	496
637.36292	484
637.87512	464
638.38721	459
638.89935	470
639.41144	448
639.92352	436
640.43561	469
640.94763	461
641.45966	466
641.97162	463
642.48358	437
642.99554	478
643.50751	468
644.01941	443
644.53131	459
645.04315	438
645.55499	420
646.06683	438
646.57861	486
647.09045	468
647.60217	439
648.11395	444
648.62567	457
649.13733	432
649.64905	457
650.16064	396
650.6723	453
651.1839	453
651.6955	442
652.20709	434
652.71863	411
653.23016	414
653.74164	404
654.25311	399
654.76459	444
655.276	446
655.78741	458
656.29883	418
656.81018	404
657.32153	389
657.83289	389
658.34418	397
658.85547	405
659.3667	392
659.87793	390
660.38916	406
660.90033	411
661.4115	404
661.92267	391
662.43378	373
662.94489	423
663.45593	381
663.96698	400
664.47803	409
664.98907	392
665.50006	396
666.01099	411
666.52191	393
667.03284	408
667.54376	396
668.05463	383
668.56549	388
669.07629	394
669.5871	404
670.0979	358
670.60864	383
671.11938	371
671.63007	376
672.14075	407
672.65143	392
673.16205	346
673.67267	366
674.18329	406
674.69385	360
675.20435	349
675.7149	355
676.2254	397
676.73584	373
677.24628	361
677.75671	389
678.26715	349
678.77753	396
679.28784	393
679.79822	344
680.30847	359
680.81879	358
681.32904	385
681.83923	361
682.34949	348
682.85968	352
683.36981	354
683.87994	342
684.39008	373
684.90015	367
685.41022	360
685.92023	364
686.43024	363
686.94025	346
687.4502	372
687.96014	357
688.47003	348
688.97992	357
689.48981	327
689.99963	364
690.50946	361
691.01923	359
691.52899	362
692.03876	342
692.54846	341
693.05817	358
693.56781	350
694.07745	367
694.58704	361
695.09662	341
695.6062	311
696.11572	354
696.62524	366
697.1347	354
697.64417	356
698.15363	332
698.66302	341
699.17242	353
699.68176	375
700.1911	347
700.70044	333
701.20972	365
701.71893	333
702.22815	329
702.73737	338
703.24652	348
703.75568	326
704.26483	342
704.77393	345
705.28302	331
705.79205	350
706.30103	352
706.81006	371
707.31903	324
707.82794	335
708.33685	352
708.84576	317
709.35461	351
709.86346	329
710.37225	326
710.88104	341
711.38977	347
711.8985	338
712.40723	332
712.91589	326
713.42456	328
713.93317	323
714.44177	348
714.95032	329
715.45886	326
715.96735	339
716.47583	337
716.98431	340
717.49274	340
718.00116	330
718.50952	360
719.01788	321
719.52618	319
720.03448	315
720.54272	351
721.05096	330
721.5592	327
722.06738	309
722.57556	319
723.08368	325
723.59174	332
724.09985	316
724.60791	310
725.11591	336
725.6239	337
726.13184	325
726.63977	339
727.14771	311
727.65558	312
728.16339	339
728.67126	321
729.17902	320
729.68683	325
730.19452	318
730.70227	319
731.2099	323
731.71759	334
732.22522	330
732.73279	329
733.24036	329
733.74792	305
734.25543	328
734.76288	312
735.27032	332
735.77777	315
736.28516	311
736.79254	320
737.29987	319
737.80719	319
738.31445	307
738.82172	325
739.32892	320
739.83612	329
740.34326	318
740.8504	320
741.35748	327
741.86456	322
742.37164	312
742.87866	307
743.38562	329
743.89258	297
744.39954	323
744.90643	314
745.41327	319
745.9201	316
746.42694	313
746.93372	314
747.44049	316
747.9472	321
748.45386	325
748.96057	328
749.46716	314
749.97375	308
750.48035	293
750.98688	318
751.49341	316
751.99988	341
752.50635	328
753.01276	338
753.51917	299
754.02551	327
754.53186	320
755.03815	322
755.54443	296
756.05066	321
756.55688	324
757.06305	326
757.56921	299
758.07532	309
758.58142	322
759.08746	320
759.59351	307
760.09949	335
760.60547	305
761.11139	318
761.61725	325
762.12317	298
762.62897	304
763.13483	319
763.64056	311
764.1463	314
764.65204	326
765.15771	330
765.66339	322
766.16901	312
766.67462	332
767.18018	337
767.68567	318
768.19116	297
768.69666	303
769.20209	321
769.70746	319
770.21283	315
770.7182	323
771.22351	328
771.72876	322
772.23401	312
772.73926	306
773.24445	326
773.74957	297
774.2547	306
774.75977	323
775.26483	346
775.76984	312
776.27484	305
776.77979	319
777.28473	317
777.78961	310
778.29449	306
778.79932	301
779.30408	325
779.80884	314
780.3136	333
780.8183	300
781.32294	318
781.82758	328
782.33215	300
782.83673	311
783.34131	320
783.84576	312
784.35028	328
784.85468	313
785.35907	302
785.86346	318
786.3678	303
786.87213	313
787.3764	314
787.88062	314
788.38483	309
788.88898	288
789.39313	296
789.89722	308
790.40131	294
790.90533	318
791.40936	309
791.91333	312
792.4173	308
792.9212	319
793.42505	314
793.92889	336
794.43268	320
794.93646	306
795.44019	327
795.94391	322
796.44757	311
796.95123	311
797.45483	322
797.95837	317
798.46191	311
798.96539	333
799.46887	303
799.97235	304
800.47571	303
800.97906	287
801.48242	302
801.98572	310
802.48895	312
802.99219	301
803.49536	304
803.99854	324
804.50165	334
805.00476	316
805.50781	330
806.01086	309
806.51379	346
807.01678	317
807.51971	286
808.02258	304
808.52539	329
809.02826	324
809.53101	326
810.03375	292
810.53644	322
811.03912	308
811.54175	320
812.04437	303
812.54694	307
813.04944	292
813.55194	296
814.05444	292
814.55682	322
815.05927	325
815.56158	313
816.0639	306
816.56622	316
817.06842	322
817.57068	324
818.07281	289
818.57495	312
819.07709	312
819.57916	321
820.08118	312
820.58319	325
821.08514	298
821.5871	310
822.08899	312
822.59082	301
823.09265	304
823.59442	307
824.09619	312
824.5979	320
825.09955	318
825.6012	323
826.10278	321
826.60437	313
827.1059	326
827.60736	293
828.10883	300
828.61023	301
829.11163	318
829.61298	324
830.11432	301
830.61554	328
831.11682	317
831.61798	317
832.11914	308
832.6203	284
833.1214	314
833.62244	325
834.12347	314
834.62445	322
835.12537	303
835.62628	301
836.12714	296
836.62799	287
837.12878	308
837.62952	317
838.13025	312
838.63092	340
839.13153	315
839.63214	315
840.13275	302
840.63324	299
841.13373	304
841.63422	315
842.13464	291
842.63501	298
843.13538	324
843.63568	318
844.13593	311
844.63617	334
845.13635	331
845.63647	321
846.1366	310
846.63672	308
847.13672	308
847.63672	306
848.13672	309
848.6366	299
849.13647	303
849.63635	303
850.13617	315
850.63593	325
851.13568	326
851.63538	307
852.13501	306
852.63464	300
853.13422	334
853.63373	322
854.13324	307
854.63275	322
855.13214	315
855.63153	315
856.13086	321
856.63019	294
857.12946	304
857.62866	313
858.12787	316
858.62701	322
859.12616	313
859.62524	325
860.12427	305
860.62323	323
861.12219	316
861.62109	289
862.12	309
862.61884	302
863.11761	318
863.61639	304
864.11511	306
864.61377	289
865.11243	309
865.61102	309
866.10962	311
866.60809	287
867.10663	298
867.60504	326
868.10345	327
868.60181	315
869.10016	332
869.59839	317
870.09668	320
870.59485	307
871.09302	332
871.59113	309
872.08923	302
872.58728	326
873.08527	313
873.58325	300
874.08118	334
874.57904	327
875.0769	301
875.57465	335
876.07245	320
876.57013	331
877.06781	323
877.56549	313
878.06305	326
878.56061	318
879.05817	314
879.5556	313
880.05304	304
880.55042	323
881.04779	321
881.5451	307
882.04236	320
882.53961	332
883.0368	334
883.53394	313
884.03107	335
884.52808	342
885.02515	316
