Date and Time:                Wed Oct 22 09:32:42.576 2025
Software Version:             4.30.30000.0
Temperature (C):              -90
Model:                        DU971P_UVB
Data Type:                    Counts
Acquisition Mode:             Single Scan
Trigger Mode:                 Internal
Exposure Time (secs):         0.5
Readout Mode:                 Full Vertical Binning
Horizontal binning:           2
Extended Dynamic Range:       off
Horizontally flipped:         false
Vertical Shift Speed (usecs): 9.68
Pixel Readout Rate (MHz):     3
Baseline Clamp:               ON
Clock Amplitude:              Normal
Output Amplifier:             Conventional
Serial Number:                20367
Pre-Amplifier Gain:           4x
Spurious Noise Filter Mode:   No Filter
Photon counted:               false
Data Averaging Filter Mode:   No Filter
SR193i:
Serial Number:                SR-2646
Wavelength (nm):              690
Grating Groove Density (l/mm):300
Grating Blaze:                500nm
Input Side Slit Width (um):   1000



478.32681	265
478.84332	326
479.35983	335
479.87631	310
480.39282	322
480.9093	313
481.42575	313
481.94223	313
482.45868	347
482.97513	336
483.49158	351
484.00803	361
484.52444	382
485.04086	467
485.55728	509
486.07367	525
486.59006	590
487.10645	604
487.62283	676
488.13919	736
488.65555	709
489.17191	767
489.68826	892
490.20459	909
490.72092	960
491.23724	972
491.75354	1104
492.26984	1105
492.78613	1114
493.30243	1215
493.8187	1255
494.33496	1285
494.85123	1355
495.36746	1442
495.8837	1439
496.39993	1573
496.91617	1680
497.43237	1674
497.94858	1837
498.46478	1845
498.98096	1967
499.49713	2125
500.01331	2120
500.52945	2281
501.04562	2317
501.56174	2621
502.07788	2789
502.59399	2978
503.11011	3278
503.62622	3521
504.1423	3979
504.65839	4413
505.17447	4858
505.69052	5485
506.20657	6043
506.72263	6655
507.23865	7356
507.75467	8151
508.27069	8984
508.78668	10072
509.30267	10861
509.81866	12113
510.33463	13329
510.85059	14421
511.36655	15349
511.88248	16350
512.39844	17154
512.91437	17559
513.43024	18235
513.94617	18772
514.46204	19395
514.97791	19771
515.49377	20067
516.00964	20031
516.52551	20035
517.04132	20264
517.55719	19773
518.073	19326
518.58881	19103
519.10461	18968
519.62036	18532
520.13617	18033
520.65192	17283
521.16766	16501
521.68341	15778
522.1991	15444
522.71484	14224
523.23053	13744
523.74622	12762
524.2619	11621
524.77759	10364
525.29327	9810
525.8089	8606
526.32452	7461
526.84015	6613
527.35577	6209
527.8714	5338
528.38696	4611
528.90259	4142
529.41815	3650
529.93372	3276
530.44922	3037
530.96478	2821
531.48029	2650
531.99579	2455
532.51129	2376
533.02679	2335
533.5423	2279
534.05774	2266
534.57318	2207
535.08862	2241
535.60406	2251
536.11945	2144
536.63489	2136
537.15027	2097
537.66565	2037
538.18097	2038
538.69635	1997
539.21167	1841
539.72699	1901
540.24231	1860
540.75763	1807
541.27289	1814
541.78821	1704
542.30347	1713
542.81873	1697
543.33392	1622
543.84918	1562
544.36438	1599
544.87958	1605
545.39478	1483
545.90991	1487
546.42511	1527
546.94025	1504
547.45538	1440
547.97052	1380
548.4856	1377
549.00073	1390
549.51581	1400
550.03088	1363
550.5459	1345
551.06097	1387
551.57599	1342
552.091	1286
552.60602	1309
553.12097	1240
553.63593	1225
554.15094	1179
554.66583	1239
555.18079	1308
555.69568	1267
556.21063	1278
556.72552	1276
557.24036	1216
557.75525	1201
558.27008	1208
558.78491	1191
559.29974	1225
559.81458	1115
560.32935	1115
560.84412	1146
561.35889	1157
561.87366	1116
562.38837	1124
562.90308	1165
563.41779	1068
563.9325	1096
564.44714	1103
564.96179	1125
565.47644	1101
565.99109	1119
566.50574	1050
567.02032	1108
567.53491	1016
568.0495	1110
568.56403	1048
569.07861	1034
569.59314	1018
570.1076	1056
570.62213	1042
571.1366	1023
571.65106	1010
572.16553	963
572.67999	963
573.1944	1015
573.7088	998
574.22321	912
574.73755	980
575.25195	914
575.7663	927
576.28058	903
576.79492	943
577.3092	958
577.82349	922
578.33777	880
578.85205	878
579.36627	952
579.88049	906
580.39471	842
580.90887	878
581.42303	882
581.93719	860
582.45135	899
582.96545	852
583.47955	882
583.99365	765
584.50775	853
585.02179	862
585.53583	846
586.04987	800
586.5639	821
587.07788	802
587.59186	784
588.10583	798
588.61975	790
589.13373	796
589.64758	745
590.1615	750
590.67542	778
591.18927	743
591.70306	767
592.21692	752
592.73071	759
593.24451	729
593.7583	713
594.27209	747
594.78583	735
595.29956	734
595.81323	693
596.32697	772
596.84064	736
597.35425	705
597.86792	723
598.38153	688
598.89514	689
599.40875	709
599.9223	701
600.43585	701
600.9494	666
601.46289	640
601.97638	670
602.48987	707
603.00336	702
603.51678	657
604.03021	655
604.54364	641
605.05701	607
605.57043	643
606.08374	604
606.59711	653
607.11041	654
607.62372	678
608.13702	627
608.65027	663
609.16351	605
609.67676	636
610.19	653
610.70319	594
611.21637	600
611.72949	607
612.24268	587
612.75574	641
613.26886	589
613.78192	672
614.29504	580
614.80804	552
615.32111	566
615.83411	578
616.34711	563
616.86005	592
617.37299	554
617.88593	573
618.39886	587
618.91174	601
619.42462	582
619.9375	528
620.45032	564
620.96313	524
621.47595	589
621.98871	569
622.50146	590
623.01422	521
623.52692	555
624.03967	557
624.55231	515
625.065	530
625.57764	562
626.09027	523
626.60284	552
627.11542	542
627.62799	518
628.14056	529
628.65308	506
629.16559	559
629.6781	529
630.19055	512
630.703	534
631.21539	539
631.72784	497
632.24017	514
632.75256	519
633.26489	493
633.77722	488
634.28955	511
634.80182	537
635.31409	485
635.82635	488
636.33856	515
636.85077	449
637.36292	498
637.87512	487
638.38721	480
638.89935	482
639.41144	455
639.92352	483
640.43561	464
640.94763	460
641.45966	479
641.97162	479
642.48358	458
642.99554	491
643.50751	452
644.01941	471
644.53131	480
645.04315	448
645.55499	439
646.06683	456
646.57861	460
647.09045	450
647.60217	461
648.11395	413
648.62567	446
649.13733	467
649.64905	449
650.16064	401
650.6723	399
651.1839	404
651.6955	421
652.20709	400
652.71863	397
653.23016	440
653.74164	438
654.25311	401
654.76459	423
655.276	411
655.78741	418
656.29883	404
656.81018	400
657.32153	401
657.83289	407
658.34418	394
658.85547	426
659.3667	418
659.87793	393
660.38916	402
660.90033	415
661.4115	388
661.92267	407
662.43378	425
662.94489	407
663.45593	420
663.96698	363
664.47803	401
664.98907	387
665.50006	426
666.01099	421
666.52191	406
667.03284	403
667.54376	397
668.05463	405
668.56549	370
669.07629	375
669.5871	394
670.0979	371
670.60864	375
671.11938	395
671.63007	381
672.14075	355
672.65143	372
673.16205	363
673.67267	363
674.18329	374
674.69385	385
675.20435	367
675.7149	372
676.2254	367
676.73584	389
677.24628	364
677.75671	353
678.26715	375
678.77753	379
679.28784	359
679.79822	377
680.30847	369
680.81879	391
681.32904	352
681.83923	378
682.34949	351
682.85968	350
683.36981	371
683.87994	366
684.39008	389
684.90015	363
685.41022	337
685.92023	353
686.43024	386
686.94025	361
687.4502	371
687.96014	348
688.47003	355
688.97992	346
689.48981	346
689.99963	366
690.50946	341
691.01923	369
691.52899	358
692.03876	350
692.54846	391
693.05817	339
693.56781	327
694.07745	360
694.58704	370
695.09662	353
695.6062	345
696.11572	348
696.62524	351
697.1347	361
697.64417	356
698.15363	337
698.66302	338
699.17242	325
699.68176	336
700.1911	340
700.70044	359
701.20972	344
701.71893	339
702.22815	346
702.73737	365
703.24652	327
703.75568	354
704.26483	355
704.77393	318
705.28302	335
705.79205	358
706.30103	328
706.81006	342
707.31903	324
707.82794	340
708.33685	360
708.84576	343
709.35461	350
709.86346	329
710.37225	351
710.88104	352
711.38977	334
711.8985	343
712.40723	322
712.91589	355
713.42456	342
713.93317	325
714.44177	347
714.95032	338
715.45886	331
715.96735	343
716.47583	307
716.98431	323
717.49274	319
718.00116	324
718.50952	321
719.01788	292
719.52618	329
720.03448	316
720.54272	332
721.05096	340
721.5592	312
722.06738	335
722.57556	346
723.08368	331
723.59174	320
724.09985	332
724.60791	327
725.11591	330
725.6239	336
726.13184	351
726.63977	334
727.14771	338
727.65558	333
728.16339	329
728.67126	315
729.17902	347
729.68683	311
730.19452	329
730.70227	340
731.2099	308
731.71759	310
732.22522	343
732.73279	342
733.24036	330
733.74792	311
734.25543	316
734.76288	347
735.27032	311
735.77777	323
736.28516	327
736.79254	317
737.29987	317
737.80719	326
738.31445	330
738.82172	330
739.32892	300
739.83612	319
740.34326	330
740.8504	322
741.35748	328
741.86456	307
742.37164	343
742.87866	323
743.38562	325
743.89258	337
744.39954	333
744.90643	314
745.41327	341
745.9201	337
746.42694	308
746.93372	325
747.44049	320
747.9472	340
748.45386	303
748.96057	325
749.46716	310
749.97375	328
750.48035	334
750.98688	313
751.49341	316
751.99988	342
752.50635	323
753.01276	325
753.51917	322
754.02551	308
754.53186	331
755.03815	316
755.54443	333
756.05066	321
756.55688	324
757.06305	325
757.56921	331
758.07532	302
758.58142	309
759.08746	305
759.59351	303
760.09949	321
760.60547	310
761.11139	318
761.61725	342
762.12317	323
762.62897	315
763.13483	309
763.64056	331
764.1463	321
764.65204	330
765.15771	310
765.66339	305
766.16901	325
766.67462	329
767.18018	347
767.68567	311
768.19116	301
768.69666	316
769.20209	334
769.70746	314
770.21283	316
770.7182	314
771.22351	337
771.72876	318
772.23401	335
772.73926	319
773.24445	316
773.74957	301
774.2547	292
774.75977	301
775.26483	295
775.76984	308
776.27484	342
776.77979	303
777.28473	303
777.78961	319
778.29449	312
778.79932	297
779.30408	325
779.80884	323
780.3136	321
780.8183	316
781.32294	335
781.82758	319
782.33215	322
782.83673	313
783.34131	296
783.84576	328
784.35028	321
784.85468	330
785.35907	315
785.86346	331
786.3678	313
786.87213	298
787.3764	303
787.88062	322
788.38483	306
788.88898	311
789.39313	313
789.89722	314
790.40131	317
790.90533	304
791.40936	312
791.91333	323
792.4173	308
792.9212	321
793.42505	314
793.92889	312
794.43268	307
794.93646	321
795.44019	305
795.94391	317
796.44757	339
796.95123	314
797.45483	290
797.95837	312
798.46191	316
798.96539	337
799.46887	322
799.97235	306
800.47571	326
800.97906	281
801.48242	337
801.98572	321
802.48895	323
802.99219	327
803.49536	295
803.99854	319
804.50165	290
805.00476	297
805.50781	321
806.01086	328
806.51379	317
807.01678	313
807.51971	291
808.02258	314
808.52539	310
809.02826	310
809.53101	313
810.03375	328
810.53644	322
811.03912	319
811.54175	326
812.04437	322
812.54694	322
813.04944	300
813.55194	319
814.05444	288
814.55682	310
815.05927	316
815.56158	323
816.0639	308
816.56622	321
817.06842	302
817.57068	300
818.07281	292
818.57495	321
819.07709	316
819.57916	331
820.08118	328
820.58319	311
821.08514	305
821.5871	312
822.08899	295
822.59082	319
823.09265	311
823.59442	318
824.09619	314
824.5979	302
825.09955	299
825.6012	317
826.10278	309
826.60437	310
827.1059	318
827.60736	309
828.10883	297
828.61023	294
829.11163	294
829.61298	327
830.11432	327
830.61554	325
831.11682	295
831.61798	305
832.11914	313
832.6203	287
833.1214	312
833.62244	322
834.12347	325
834.62445	316
835.12537	310
835.62628	314
836.12714	311
836.62799	318
837.12878	303
837.62952	313
838.13025	308
838.63092	294
839.13153	320
839.63214	289
840.13275	296
840.63324	312
841.13373	316
841.63422	304
842.13464	309
842.63501	304
843.13538	322
843.63568	288
844.13593	334
844.63617	311
845.13635	307
845.63647	322
846.1366	297
846.63672	331
847.13672	299
847.63672	301
848.13672	310
848.6366	313
849.13647	319
849.63635	303
850.13617	297
850.63593	305
851.13568	294
851.63538	315
852.13501	328
852.63464	307
853.13422	287
853.63373	318
854.13324	327
854.63275	323
855.13214	329
855.63153	327
856.13086	305
856.63019	315
857.12946	313
857.62866	304
858.12787	298
858.62701	326
859.12616	331
859.62524	285
860.12427	302
860.62323	289
861.12219	309
861.62109	289
862.12	289
862.61884	310
863.11761	306
863.61639	303
864.11511	327
864.61377	314
865.11243	307
865.61102	313
866.10962	308
866.60809	314
867.10663	294
867.60504	317
868.10345	317
868.60181	314
869.10016	325
869.59839	311
870.09668	314
870.59485	296
871.09302	312
871.59113	313
872.08923	301
872.58728	318
873.08527	310
873.58325	332
874.08118	316
874.57904	313
875.0769	322
875.57465	331
876.07245	316
876.57013	296
877.06781	319
877.56549	324
878.06305	336
878.56061	333
879.05817	323
879.5556	318
880.05304	325
880.55042	327
881.04779	318
881.5451	322
882.04236	306
882.53961	335
883.0368	320
883.53394	342
884.03107	310
884.52808	320
885.02515	312
