Date and Time:                Sat Oct 18 09:41:33.845 2025
Software Version:             4.30.30000.0
Temperature (C):              -90
Model:                        DU971P_UVB
Data Type:                    Counts
Acquisition Mode:             Single Scan
Trigger Mode:                 Internal
Exposure Time (secs):         0.5
Readout Mode:                 Full Vertical Binning
Horizontal binning:           2
Extended Dynamic Range:       off
Horizontally flipped:         false
Vertical Shift Speed (usecs): 9.68
Pixel Readout Rate (MHz):     3
Baseline Clamp:               ON
Clock Amplitude:              Normal
Output Amplifier:             Conventional
Serial Number:                20367
Pre-Amplifier Gain:           4x
Spurious Noise Filter Mode:   No Filter
Photon counted:               false
Data Averaging Filter Mode:   No Filter
SR193i:
Serial Number:                SR-2646
Wavelength (nm):              690
Grating Groove Density (l/mm):300
Grating Blaze:                500nm
Input Side Slit Width (um):   1000



478.32681	276
478.84332	329
479.35983	318
479.87631	344
480.39282	302
480.9093	320
481.42575	321
481.94223	306
482.45868	319
482.97513	347
483.49158	342
484.00803	359
484.52444	420
485.04086	434
485.55728	477
486.07367	523
486.59006	554
487.10645	628
487.62283	675
488.13919	655
488.65555	761
489.17191	814
489.68826	805
490.20459	858
490.72092	935
491.23724	1004
491.75354	1057
492.26984	1083
492.78613	1146
493.30243	1208
493.8187	1218
494.33496	1286
494.85123	1335
495.36746	1440
495.8837	1480
496.39993	1438
496.91617	1651
497.43237	1624
497.94858	1744
498.46478	1826
498.98096	1883
499.49713	2064
500.01331	2125
500.52945	2229
501.04562	2363
501.56174	2580
502.07788	2680
502.59399	2959
503.11011	3293
503.62622	3561
504.1423	3929
504.65839	4484
505.17447	5069
505.69052	5408
506.20657	6052
506.72263	6773
507.23865	7189
507.75467	8299
508.27069	9200
508.78668	10056
509.30267	11272
509.81866	12262
510.33463	13656
510.85059	14045
511.36655	15005
511.88248	16131
512.39844	17166
512.91437	17784
513.43024	18094
513.94617	18428
514.46204	19155
514.97791	19327
515.49377	19677
516.00964	19506
516.52551	19536
517.04132	19535
517.55719	19207
518.073	18978
518.58881	18411
519.10461	18387
519.62036	17600
520.13617	17470
520.65192	16827
521.16766	15869
521.68341	15751
522.1991	14871
522.71484	13941
523.23053	12818
523.74622	11894
524.2619	10815
524.77759	10095
525.29327	9147
525.8089	8057
526.32452	7109
526.84015	6393
527.35577	5734
527.8714	5006
528.38696	4515
528.90259	3936
529.41815	3510
529.93372	3231
530.44922	2900
530.96478	2651
531.48029	2504
531.99579	2329
532.51129	2281
533.02679	2222
533.5423	2195
534.05774	2241
534.57318	2178
535.08862	2168
535.60406	2152
536.11945	2075
536.63489	2036
537.15027	2014
537.66565	2052
538.18097	1931
538.69635	1957
539.21167	1906
539.72699	1881
540.24231	1865
540.75763	1772
541.27289	1711
541.78821	1722
542.30347	1703
542.81873	1640
543.33392	1601
543.84918	1632
544.36438	1591
544.87958	1500
545.39478	1551
545.90991	1455
546.42511	1529
546.94025	1506
547.45538	1446
547.97052	1436
548.4856	1411
549.00073	1348
549.51581	1381
550.03088	1379
550.5459	1352
551.06097	1340
551.57599	1290
552.091	1325
552.60602	1240
553.12097	1313
553.63593	1263
554.15094	1310
554.66583	1257
555.18079	1187
555.69568	1180
556.21063	1198
556.72552	1183
557.24036	1139
557.75525	1190
558.27008	1185
558.78491	1184
559.29974	1162
559.81458	1176
560.32935	1150
560.84412	1174
561.35889	1160
561.87366	1137
562.38837	1141
562.90308	1095
563.41779	1167
563.9325	1119
564.44714	1095
564.96179	1053
565.47644	1067
565.99109	1039
566.50574	1057
567.02032	1035
567.53491	1060
568.0495	1017
568.56403	1041
569.07861	1104
569.59314	1029
570.1076	1025
570.62213	981
571.1366	994
571.65106	937
572.16553	967
572.67999	1023
573.1944	956
573.7088	977
574.22321	960
574.73755	917
575.25195	977
575.7663	937
576.28058	922
576.79492	959
577.3092	905
577.82349	868
578.33777	920
578.85205	891
579.36627	894
579.88049	872
580.39471	923
580.90887	893
581.42303	871
581.93719	844
582.45135	818
582.96545	863
583.47955	822
583.99365	890
584.50775	842
585.02179	882
585.53583	831
586.04987	791
586.5639	802
587.07788	827
587.59186	801
588.10583	783
588.61975	817
589.13373	802
589.64758	744
590.1615	795
590.67542	763
591.18927	723
591.70306	775
592.21692	781
592.73071	725
593.24451	755
593.7583	756
594.27209	743
594.78583	736
595.29956	716
595.81323	705
596.32697	724
596.84064	732
597.35425	706
597.86792	661
598.38153	663
598.89514	681
599.40875	717
599.9223	721
600.43585	718
600.9494	703
601.46289	690
601.97638	655
602.48987	671
603.00336	659
603.51678	622
604.03021	655
604.54364	676
605.05701	657
605.57043	662
606.08374	676
606.59711	649
607.11041	630
607.62372	624
608.13702	629
608.65027	631
609.16351	624
609.67676	621
610.19	591
610.70319	610
611.21637	646
611.72949	639
612.24268	577
612.75574	591
613.26886	588
613.78192	614
614.29504	588
614.80804	569
615.32111	562
615.83411	603
616.34711	568
616.86005	526
617.37299	553
617.88593	577
618.39886	565
618.91174	597
619.42462	552
619.9375	523
620.45032	552
620.96313	544
621.47595	571
621.98871	541
622.50146	556
623.01422	565
623.52692	547
624.03967	576
624.55231	523
625.065	552
625.57764	569
626.09027	486
626.60284	517
627.11542	527
627.62799	514
628.14056	508
628.65308	504
629.16559	523
629.6781	499
630.19055	528
630.703	498
631.21539	501
631.72784	479
632.24017	510
632.75256	491
633.26489	496
633.77722	490
634.28955	502
634.80182	510
635.31409	473
635.82635	502
636.33856	473
636.85077	489
637.36292	456
637.87512	529
638.38721	488
638.89935	461
639.41144	428
639.92352	485
640.43561	486
640.94763	452
641.45966	434
641.97162	467
642.48358	465
642.99554	441
643.50751	475
644.01941	458
644.53131	446
645.04315	463
645.55499	468
646.06683	439
646.57861	456
647.09045	427
647.60217	443
648.11395	399
648.62567	445
649.13733	414
649.64905	435
650.16064	415
650.6723	454
651.1839	461
651.6955	426
652.20709	420
652.71863	428
653.23016	421
653.74164	429
654.25311	424
654.76459	415
655.276	436
655.78741	393
656.29883	425
656.81018	424
657.32153	415
657.83289	416
658.34418	384
658.85547	410
659.3667	393
659.87793	385
660.38916	378
660.90033	415
661.4115	401
661.92267	378
662.43378	396
662.94489	390
663.45593	397
663.96698	400
664.47803	407
664.98907	398
665.50006	398
666.01099	395
666.52191	398
667.03284	387
667.54376	401
668.05463	418
668.56549	384
669.07629	382
669.5871	362
670.0979	394
670.60864	399
671.11938	392
671.63007	380
672.14075	395
672.65143	377
673.16205	398
673.67267	371
674.18329	378
674.69385	368
675.20435	401
675.7149	383
676.2254	369
676.73584	366
677.24628	373
677.75671	352
678.26715	357
678.77753	381
679.28784	368
679.79822	351
680.30847	363
680.81879	377
681.32904	379
681.83923	367
682.34949	361
682.85968	376
683.36981	359
683.87994	362
684.39008	330
684.90015	363
685.41022	352
685.92023	348
686.43024	342
686.94025	398
687.4502	355
687.96014	359
688.47003	352
688.97992	377
689.48981	390
689.99963	356
690.50946	366
691.01923	358
691.52899	326
692.03876	361
692.54846	350
693.05817	370
693.56781	369
694.07745	358
694.58704	347
695.09662	362
695.6062	353
696.11572	347
696.62524	328
697.1347	353
697.64417	342
698.15363	352
698.66302	357
699.17242	343
699.68176	348
700.1911	341
700.70044	326
701.20972	343
701.71893	355
702.22815	341
702.73737	328
703.24652	352
703.75568	370
704.26483	359
704.77393	352
705.28302	335
705.79205	346
706.30103	304
706.81006	345
707.31903	344
707.82794	333
708.33685	359
708.84576	334
709.35461	339
709.86346	344
710.37225	327
710.88104	338
711.38977	341
711.8985	344
712.40723	339
712.91589	345
713.42456	368
713.93317	339
714.44177	319
714.95032	339
715.45886	339
715.96735	368
716.47583	353
716.98431	334
717.49274	354
718.00116	357
718.50952	343
719.01788	325
719.52618	353
720.03448	350
720.54272	339
721.05096	324
721.5592	327
722.06738	305
722.57556	352
723.08368	302
723.59174	345
724.09985	317
724.60791	350
725.11591	333
725.6239	326
726.13184	355
726.63977	316
727.14771	300
727.65558	325
728.16339	321
728.67126	349
729.17902	313
729.68683	332
730.19452	338
730.70227	335
731.2099	325
731.71759	347
732.22522	314
732.73279	344
733.24036	313
733.74792	334
734.25543	325
734.76288	322
735.27032	332
735.77777	309
736.28516	317
736.79254	341
737.29987	337
737.80719	315
738.31445	323
738.82172	335
739.32892	338
739.83612	323
740.34326	325
740.8504	308
741.35748	323
741.86456	312
742.37164	331
742.87866	303
743.38562	313
743.89258	321
744.39954	313
744.90643	335
745.41327	338
745.9201	322
746.42694	345
746.93372	325
747.44049	314
747.9472	340
748.45386	316
748.96057	360
749.46716	319
749.97375	300
750.48035	317
750.98688	306
751.49341	320
751.99988	333
752.50635	344
753.01276	330
753.51917	318
754.02551	318
754.53186	332
755.03815	337
755.54443	328
756.05066	327
756.55688	318
757.06305	307
757.56921	322
758.07532	334
758.58142	323
759.08746	319
759.59351	290
760.09949	329
760.60547	332
761.11139	305
761.61725	320
762.12317	300
762.62897	339
763.13483	326
763.64056	327
764.1463	333
764.65204	331
765.15771	306
765.66339	333
766.16901	306
766.67462	323
767.18018	312
767.68567	326
768.19116	315
768.69666	316
769.20209	349
769.70746	306
770.21283	313
770.7182	330
771.22351	320
771.72876	319
772.23401	326
772.73926	327
773.24445	324
773.74957	314
774.2547	326
774.75977	325
775.26483	311
775.76984	304
776.27484	318
776.77979	326
777.28473	330
777.78961	317
778.29449	320
778.79932	310
779.30408	306
779.80884	323
780.3136	309
780.8183	308
781.32294	318
781.82758	319
782.33215	302
782.83673	338
783.34131	305
783.84576	313
784.35028	332
784.85468	319
785.35907	302
785.86346	324
786.3678	323
786.87213	310
787.3764	316
787.88062	310
788.38483	335
788.88898	317
789.39313	301
789.89722	307
790.40131	304
790.90533	311
791.40936	319
791.91333	320
792.4173	332
792.9212	308
793.42505	306
793.92889	318
794.43268	318
794.93646	315
795.44019	327
795.94391	324
796.44757	299
796.95123	296
797.45483	328
797.95837	305
798.46191	328
798.96539	328
799.46887	307
799.97235	315
800.47571	322
800.97906	318
801.48242	318
801.98572	311
802.48895	314
802.99219	305
803.49536	303
803.99854	308
804.50165	303
805.00476	312
805.50781	321
806.01086	326
806.51379	314
807.01678	331
807.51971	327
808.02258	309
808.52539	314
809.02826	289
809.53101	314
810.03375	295
810.53644	312
811.03912	313
811.54175	309
812.04437	312
812.54694	316
813.04944	317
813.55194	317
814.05444	332
814.55682	317
815.05927	313
815.56158	310
816.0639	319
816.56622	322
817.06842	320
817.57068	303
818.07281	280
818.57495	314
819.07709	298
819.57916	287
820.08118	316
820.58319	312
821.08514	317
821.5871	316
822.08899	319
822.59082	323
823.09265	317
823.59442	316
824.09619	331
824.5979	300
825.09955	324
825.6012	296
826.10278	291
826.60437	306
827.1059	320
827.60736	323
828.10883	312
828.61023	306
829.11163	308
829.61298	298
830.11432	327
830.61554	298
831.11682	326
831.61798	288
832.11914	304
832.6203	312
833.1214	323
833.62244	295
834.12347	311
834.62445	315
835.12537	308
835.62628	323
836.12714	320
836.62799	308
837.12878	305
837.62952	309
838.13025	325
838.63092	336
839.13153	310
839.63214	310
840.13275	314
840.63324	320
841.13373	333
841.63422	321
842.13464	336
842.63501	342
843.13538	316
843.63568	329
844.13593	304
844.63617	319
845.13635	302
845.63647	306
846.1366	322
846.63672	306
847.13672	320
847.63672	295
848.13672	301
848.6366	304
849.13647	305
849.63635	316
850.13617	307
850.63593	318
851.13568	308
851.63538	318
852.13501	295
852.63464	330
853.13422	324
853.63373	319
854.13324	294
854.63275	316
855.13214	311
855.63153	301
856.13086	333
856.63019	321
857.12946	315
857.62866	309
858.12787	331
858.62701	306
859.12616	288
859.62524	316
860.12427	308
860.62323	304
861.12219	324
861.62109	311
862.12	308
862.61884	313
863.11761	311
863.61639	293
864.11511	310
864.61377	327
865.11243	309
865.61102	327
866.10962	317
866.60809	309
867.10663	325
867.60504	345
868.10345	314
868.60181	299
869.10016	316
869.59839	312
870.09668	317
870.59485	321
871.09302	347
871.59113	324
872.08923	325
872.58728	318
873.08527	345
873.58325	329
874.08118	295
874.57904	341
875.0769	306
875.57465	309
876.07245	319
876.57013	318
877.06781	328
877.56549	308
878.06305	319
878.56061	335
879.05817	317
879.5556	332
880.05304	326
880.55042	310
881.04779	317
881.5451	328
882.04236	337
882.53961	318
883.0368	329
883.53394	319
884.03107	292
884.52808	333
885.02515	323
