Date and Time:                Sat Oct 18 08:27:26.106 2025
Software Version:             4.30.30000.0
Temperature (C):              -90
Model:                        DU971P_UVB
Data Type:                    Counts
Acquisition Mode:             Single Scan
Trigger Mode:                 Internal
Exposure Time (secs):         0.5
Readout Mode:                 Full Vertical Binning
Horizontal binning:           2
Extended Dynamic Range:       off
Horizontally flipped:         false
Vertical Shift Speed (usecs): 9.68
Pixel Readout Rate (MHz):     3
Baseline Clamp:               ON
Clock Amplitude:              Normal
Output Amplifier:             Conventional
Serial Number:                20367
Pre-Amplifier Gain:           4x
Spurious Noise Filter Mode:   No Filter
Photon counted:               false
Data Averaging Filter Mode:   No Filter
SR193i:
Serial Number:                SR-2646
Wavelength (nm):              690
Grating Groove Density (l/mm):300
Grating Blaze:                500nm
Input Side Slit Width (um):   1000



478.32681	253
478.84332	313
479.35983	314
479.87631	312
480.39282	328
480.9093	301
481.42575	339
481.94223	336
482.45868	331
482.97513	331
483.49158	339
484.00803	373
484.52444	380
485.04086	419
485.55728	463
486.07367	518
486.59006	588
487.10645	621
487.62283	627
488.13919	706
488.65555	739
489.17191	790
489.68826	825
490.20459	852
490.72092	941
491.23724	985
491.75354	984
492.26984	1070
492.78613	1162
493.30243	1203
493.8187	1190
494.33496	1368
494.85123	1382
495.36746	1424
495.8837	1353
496.39993	1554
496.91617	1553
497.43237	1644
497.94858	1751
498.46478	1878
498.98096	1990
499.49713	2007
500.01331	2186
500.52945	2261
501.04562	2394
501.56174	2528
502.07788	2748
502.59399	2979
503.11011	3224
503.62622	3591
504.1423	3930
504.65839	4534
505.17447	4854
505.69052	5602
506.20657	5959
506.72263	6578
507.23865	7389
507.75467	8157
508.27069	9274
508.78668	10214
509.30267	11314
509.81866	12310
510.33463	13213
510.85059	14090
511.36655	15265
511.88248	16357
512.39844	16757
512.91437	17901
513.43024	18470
513.94617	18905
514.46204	19235
514.97791	19558
515.49377	19702
516.00964	19739
516.52551	19840
517.04132	19632
517.55719	19641
518.073	19510
518.58881	19087
519.10461	18475
519.62036	18329
520.13617	17585
520.65192	17255
521.16766	16300
521.68341	15810
522.1991	14859
522.71484	14289
523.23053	13186
523.74622	12162
524.2619	11218
524.77759	10520
525.29327	9460
525.8089	8205
526.32452	7314
526.84015	6646
527.35577	5701
527.8714	5082
528.38696	4384
528.90259	4164
529.41815	3601
529.93372	3266
530.44922	2995
530.96478	2781
531.48029	2615
531.99579	2475
532.51129	2478
533.02679	2308
533.5423	2274
534.05774	2276
534.57318	2277
535.08862	2208
535.60406	2059
536.11945	2044
536.63489	2116
537.15027	2073
537.66565	2094
538.18097	1941
538.69635	1992
539.21167	1946
539.72699	1914
540.24231	1836
540.75763	1767
541.27289	1703
541.78821	1734
542.30347	1730
542.81873	1637
543.33392	1647
543.84918	1552
544.36438	1587
544.87958	1517
545.39478	1473
545.90991	1480
546.42511	1466
546.94025	1398
547.45538	1384
547.97052	1426
548.4856	1366
549.00073	1403
549.51581	1342
550.03088	1359
550.5459	1302
551.06097	1327
551.57599	1235
552.091	1240
552.60602	1241
553.12097	1244
553.63593	1260
554.15094	1232
554.66583	1251
555.18079	1264
555.69568	1176
556.21063	1158
556.72552	1213
557.24036	1205
557.75525	1136
558.27008	1178
558.78491	1125
559.29974	1102
559.81458	1120
560.32935	1144
560.84412	1131
561.35889	1168
561.87366	1122
562.38837	1093
562.90308	1096
563.41779	1103
563.9325	1077
564.44714	1028
564.96179	1094
565.47644	1061
565.99109	1051
566.50574	1033
567.02032	1043
567.53491	1039
568.0495	1006
568.56403	1011
569.07861	976
569.59314	1044
570.1076	1016
570.62213	1005
571.1366	954
571.65106	972
572.16553	1025
572.67999	991
573.1944	953
573.7088	947
574.22321	992
574.73755	927
575.25195	913
575.7663	875
576.28058	918
576.79492	910
577.3092	942
577.82349	945
578.33777	873
578.85205	882
579.36627	858
579.88049	886
580.39471	886
580.90887	881
581.42303	822
581.93719	875
582.45135	797
582.96545	854
583.47955	851
583.99365	881
584.50775	815
585.02179	764
585.53583	847
586.04987	820
586.5639	819
587.07788	772
587.59186	810
588.10583	755
588.61975	795
589.13373	807
589.64758	791
590.1615	742
590.67542	778
591.18927	783
591.70306	740
592.21692	785
592.73071	714
593.24451	767
593.7583	734
594.27209	740
594.78583	709
595.29956	713
595.81323	718
596.32697	699
596.84064	712
597.35425	650
597.86792	724
598.38153	691
598.89514	696
599.40875	684
599.9223	653
600.43585	660
600.9494	663
601.46289	656
601.97638	668
602.48987	684
603.00336	668
603.51678	675
604.03021	692
604.54364	631
605.05701	652
605.57043	579
606.08374	627
606.59711	651
607.11041	672
607.62372	607
608.13702	620
608.65027	630
609.16351	632
609.67676	612
610.19	615
610.70319	583
611.21637	601
611.72949	592
612.24268	597
612.75574	631
613.26886	600
613.78192	592
614.29504	598
614.80804	608
615.32111	630
615.83411	557
616.34711	581
616.86005	564
617.37299	597
617.88593	563
618.39886	557
618.91174	549
619.42462	576
619.9375	546
620.45032	541
620.96313	568
621.47595	549
621.98871	588
622.50146	564
623.01422	550
623.52692	545
624.03967	544
624.55231	548
625.065	537
625.57764	535
626.09027	556
626.60284	559
627.11542	506
627.62799	536
628.14056	509
628.65308	532
629.16559	540
629.6781	507
630.19055	514
630.703	517
631.21539	521
631.72784	502
632.24017	476
632.75256	488
633.26489	523
633.77722	491
634.28955	503
634.80182	478
635.31409	465
635.82635	480
636.33856	520
636.85077	478
637.36292	432
637.87512	493
638.38721	530
638.89935	484
639.41144	472
639.92352	486
640.43561	459
640.94763	501
641.45966	483
641.97162	481
642.48358	454
642.99554	430
643.50751	403
644.01941	420
644.53131	440
645.04315	475
645.55499	445
646.06683	433
646.57861	447
647.09045	438
647.60217	424
648.11395	452
648.62567	440
649.13733	424
649.64905	474
650.16064	438
650.6723	444
651.1839	426
651.6955	413
652.20709	445
652.71863	405
653.23016	447
653.74164	434
654.25311	414
654.76459	413
655.276	437
655.78741	429
656.29883	416
656.81018	389
657.32153	407
657.83289	402
658.34418	392
658.85547	403
659.3667	402
659.87793	387
660.38916	391
660.90033	395
661.4115	433
661.92267	406
662.43378	398
662.94489	393
663.45593	411
663.96698	404
664.47803	395
664.98907	402
665.50006	389
666.01099	395
666.52191	383
667.03284	408
667.54376	418
668.05463	384
668.56549	393
669.07629	374
669.5871	388
670.0979	405
670.60864	386
671.11938	380
671.63007	393
672.14075	380
672.65143	378
673.16205	375
673.67267	391
674.18329	384
674.69385	362
675.20435	362
675.7149	378
676.2254	379
676.73584	370
677.24628	349
677.75671	386
678.26715	350
678.77753	375
679.28784	391
679.79822	404
680.30847	382
680.81879	367
681.32904	373
681.83923	366
682.34949	392
682.85968	342
683.36981	356
683.87994	335
684.39008	391
684.90015	354
685.41022	359
685.92023	345
686.43024	373
686.94025	358
687.4502	354
687.96014	370
688.47003	351
688.97992	359
689.48981	351
689.99963	329
690.50946	345
691.01923	350
691.52899	367
692.03876	365
692.54846	367
693.05817	332
693.56781	363
694.07745	366
694.58704	355
695.09662	341
695.6062	355
696.11572	355
696.62524	361
697.1347	346
697.64417	334
698.15363	324
698.66302	351
699.17242	359
699.68176	348
700.1911	354
700.70044	352
701.20972	336
701.71893	346
702.22815	356
702.73737	339
703.24652	350
703.75568	318
704.26483	355
704.77393	335
705.28302	338
705.79205	343
706.30103	355
706.81006	345
707.31903	351
707.82794	350
708.33685	366
708.84576	345
709.35461	330
709.86346	324
710.37225	349
710.88104	362
711.38977	327
711.8985	322
712.40723	337
712.91589	337
713.42456	348
713.93317	334
714.44177	334
714.95032	329
715.45886	332
715.96735	323
716.47583	338
716.98431	326
717.49274	332
718.00116	354
718.50952	321
719.01788	321
719.52618	319
720.03448	342
720.54272	314
721.05096	332
721.5592	327
722.06738	334
722.57556	309
723.08368	342
723.59174	332
724.09985	345
724.60791	331
725.11591	335
725.6239	332
726.13184	347
726.63977	328
727.14771	324
727.65558	330
728.16339	317
728.67126	322
729.17902	333
729.68683	317
730.19452	320
730.70227	314
731.2099	341
731.71759	321
732.22522	339
732.73279	329
733.24036	325
733.74792	328
734.25543	313
734.76288	333
735.27032	334
735.77777	334
736.28516	322
736.79254	331
737.29987	337
737.80719	343
738.31445	364
738.82172	311
739.32892	337
739.83612	318
740.34326	324
740.8504	315
741.35748	325
741.86456	338
742.37164	333
742.87866	325
743.38562	322
743.89258	329
744.39954	302
744.90643	313
745.41327	324
745.9201	307
746.42694	335
746.93372	317
747.44049	320
747.9472	305
748.45386	323
748.96057	324
749.46716	322
749.97375	341
750.48035	314
750.98688	343
751.49341	342
751.99988	306
752.50635	303
753.01276	347
753.51917	299
754.02551	330
754.53186	306
755.03815	314
755.54443	323
756.05066	306
756.55688	331
757.06305	326
757.56921	327
758.07532	318
758.58142	318
759.08746	341
759.59351	310
760.09949	292
760.60547	325
761.11139	309
761.61725	318
762.12317	327
762.62897	335
763.13483	317
763.64056	337
764.1463	326
764.65204	312
765.15771	311
765.66339	313
766.16901	314
766.67462	309
767.18018	328
767.68567	329
768.19116	325
768.69666	330
769.20209	330
769.70746	308
770.21283	336
770.7182	333
771.22351	317
771.72876	322
772.23401	332
772.73926	298
773.24445	313
773.74957	318
774.2547	329
774.75977	306
775.26483	303
775.76984	319
776.27484	329
776.77979	325
777.28473	306
777.78961	326
778.29449	312
778.79932	296
779.30408	304
779.80884	320
780.3136	328
780.8183	319
781.32294	305
781.82758	309
782.33215	328
782.83673	336
783.34131	344
783.84576	308
784.35028	325
784.85468	304
785.35907	323
785.86346	308
786.3678	322
786.87213	305
787.3764	313
787.88062	333
788.38483	330
788.88898	307
789.39313	301
789.89722	299
790.40131	301
790.90533	328
791.40936	327
791.91333	337
792.4173	315
792.9212	320
793.42505	327
793.92889	301
794.43268	296
794.93646	302
795.44019	320
795.94391	327
796.44757	306
796.95123	324
797.45483	316
797.95837	294
798.46191	314
798.96539	318
799.46887	311
799.97235	303
800.47571	312
800.97906	307
801.48242	309
801.98572	333
802.48895	311
802.99219	302
803.49536	316
803.99854	318
804.50165	310
805.00476	285
805.50781	329
806.01086	331
806.51379	305
807.01678	318
807.51971	318
808.02258	314
808.52539	317
809.02826	327
809.53101	294
810.03375	316
810.53644	312
811.03912	318
811.54175	327
812.04437	324
812.54694	313
813.04944	319
813.55194	317
814.05444	330
814.55682	341
815.05927	298
815.56158	324
816.0639	318
816.56622	336
817.06842	299
817.57068	317
818.07281	321
818.57495	313
819.07709	282
819.57916	309
820.08118	313
820.58319	283
821.08514	312
821.5871	306
822.08899	316
822.59082	298
823.09265	319
823.59442	306
824.09619	302
824.5979	314
825.09955	316
825.6012	337
826.10278	326
826.60437	292
827.1059	295
827.60736	315
828.10883	298
828.61023	318
829.11163	325
829.61298	313
830.11432	326
830.61554	332
831.11682	300
831.61798	324
832.11914	325
832.6203	306
833.1214	324
833.62244	302
834.12347	294
834.62445	306
835.12537	308
835.62628	312
836.12714	314
836.62799	322
837.12878	326
837.62952	322
838.13025	327
838.63092	299
839.13153	304
839.63214	322
840.13275	327
840.63324	307
841.13373	303
841.63422	311
842.13464	313
842.63501	292
843.13538	313
843.63568	314
844.13593	330
844.63617	329
845.13635	322
845.63647	302
846.1366	317
846.63672	311
847.13672	295
847.63672	327
848.13672	287
848.6366	299
849.13647	305
849.63635	341
850.13617	326
850.63593	308
851.13568	312
851.63538	329
852.13501	346
852.63464	315
853.13422	315
853.63373	322
854.13324	309
854.63275	325
855.13214	316
855.63153	299
856.13086	331
856.63019	297
857.12946	331
857.62866	303
858.12787	313
858.62701	310
859.12616	304
859.62524	322
860.12427	300
860.62323	311
861.12219	322
861.62109	314
862.12	315
862.61884	328
863.11761	323
863.61639	300
864.11511	318
864.61377	312
865.11243	324
865.61102	319
866.10962	309
866.60809	309
867.10663	291
867.60504	316
868.10345	311
868.60181	315
869.10016	317
869.59839	326
870.09668	337
870.59485	320
871.09302	324
871.59113	325
872.08923	312
872.58728	310
873.08527	316
873.58325	336
874.08118	322
874.57904	313
875.0769	326
875.57465	323
876.07245	316
876.57013	316
877.06781	317
877.56549	315
878.06305	311
878.56061	330
879.05817	341
879.5556	310
880.05304	332
880.55042	328
881.04779	327
881.5451	322
882.04236	334
882.53961	345
883.0368	303
883.53394	323
884.03107	351
884.52808	347
885.02515	338
