Date and Time:                Fri Oct 17 08:33:46.317 2025
Software Version:             4.30.30000.0
Unstabilized Temperature (C): -89.631
Model:                        DU971P_UVB
Data Type:                    Counts
Acquisition Mode:             Single Scan
Trigger Mode:                 Internal
Exposure Time (secs):         30
Readout Mode:                 Full Vertical Binning
Horizontal binning:           2
Extended Dynamic Range:       off
Horizontally flipped:         false
Vertical Shift Speed (usecs): 9.68
Pixel Readout Rate (MHz):     3
Baseline Clamp:               ON
Clock Amplitude:              Normal
Output Amplifier:             Conventional
Serial Number:                20367
Pre-Amplifier Gain:           4x
Spurious Noise Filter Mode:   No Filter
Photon counted:               false
Data Averaging Filter Mode:   No Filter
SR193i:
Serial Number:                SR-2646
Wavelength (nm):              690
Grating Groove Density (l/mm):300
Grating Blaze:                500nm
Input Side Slit Width (um):   1000



478.32681	270
478.84332	369
479.35983	365
479.87631	374
480.39282	362
480.9093	390
481.42575	358
481.94223	395
482.45868	358
482.97513	357
483.49158	377
484.00803	385
484.52444	376
485.04086	384
485.55728	407
486.07367	406
486.59006	379
487.10645	419
487.62283	407
488.13919	407
488.65555	421
489.17191	432
489.68826	372
490.20459	470
490.72092	439
491.23724	459
491.75354	414
492.26984	430
492.78613	435
493.30243	431
493.8187	437
494.33496	464
494.85123	472
495.36746	483
495.8837	463
496.39993	492
496.91617	473
497.43237	470
497.94858	512
498.46478	467
498.98096	503
499.49713	471
500.01331	530
500.52945	507
501.04562	522
501.56174	496
502.07788	523
502.59399	487
503.11011	526
503.62622	525
504.1423	490
504.65839	494
505.17447	547
505.69052	528
506.20657	523
506.72263	507
507.23865	494
507.75467	507
508.27069	537
508.78668	515
509.30267	532
509.81866	528
510.33463	491
510.85059	528
511.36655	526
511.88248	527
512.39844	506
512.91437	491
513.43024	519
513.94617	505
514.46204	523
514.97791	466
515.49377	511
516.00964	503
516.52551	522
517.04132	471
517.55719	486
518.073	513
518.58881	454
519.10461	483
519.62036	510
520.13617	528
520.65192	493
521.16766	512
521.68341	490
522.1991	512
522.71484	501
523.23053	509
523.74622	491
524.2619	1342
524.77759	520
525.29327	489
525.8089	525
526.32452	480
526.84015	477
527.35577	477
527.8714	493
528.38696	474
528.90259	510
529.41815	471
529.93372	506
530.44922	491
530.96478	519
531.48029	489
531.99579	474
532.51129	471
533.02679	487
533.5423	485
534.05774	488
534.57318	498
535.08862	532
535.60406	484
536.11945	486
536.63489	509
537.15027	469
537.66565	494
538.18097	542
538.69635	462
539.21167	494
539.72699	479
540.24231	485
540.75763	480
541.27289	454
541.78821	474
542.30347	513
542.81873	475
543.33392	490
543.84918	466
544.36438	470
544.87958	471
545.39478	457
545.90991	473
546.42511	510
546.94025	482
547.45538	493
547.97052	486
548.4856	494
549.00073	498
549.51581	466
550.03088	454
550.5459	501
551.06097	526
551.57599	468
552.091	518
552.60602	476
553.12097	498
553.63593	520
554.15094	505
554.66583	491
555.18079	476
555.69568	522
556.21063	533
556.72552	487
557.24036	512
557.75525	512
558.27008	515
558.78491	556
559.29974	547
559.81458	524
560.32935	517
560.84412	552
561.35889	550
561.87366	546
562.38837	504
562.90308	591
563.41779	552
563.9325	574
564.44714	559
564.96179	577
565.47644	577
565.99109	653
566.50574	564
567.02032	547
567.53491	591
568.0495	594
568.56403	581
569.07861	599
569.59314	624
570.1076	639
570.62213	619
571.1366	599
571.65106	662
572.16553	663
572.67999	684
573.1944	642
573.7088	612
574.22321	658
574.73755	640
575.25195	702
575.7663	707
576.28058	653
576.79492	728
577.3092	704
577.82349	730
578.33777	702
578.85205	722
579.36627	713
579.88049	755
580.39471	744
580.90887	731
581.42303	712
581.93719	738
582.45135	725
582.96545	761
583.47955	757
583.99365	770
584.50775	798
585.02179	778
585.53583	804
586.04987	777
586.5639	815
587.07788	864
587.59186	812
588.10583	842
588.61975	820
589.13373	845
589.64758	845
590.1615	812
590.67542	873
591.18927	862
591.70306	852
592.21692	868
592.73071	839
593.24451	892
593.7583	882
594.27209	887
594.78583	924
595.29956	865
595.81323	874
596.32697	828
596.84064	891
597.35425	890
597.86792	920
598.38153	968
598.89514	868
599.40875	895
599.9223	872
600.43585	911
600.9494	981
601.46289	910
601.97638	891
602.48987	918
603.00336	913
603.51678	943
604.03021	957
604.54364	867
605.05701	895
605.57043	921
606.08374	915
606.59711	897
607.11041	917
607.62372	898
608.13702	883
608.65027	871
609.16351	902
609.67676	964
610.19	946
610.70319	924
611.21637	939
611.72949	933
612.24268	931
612.75574	955
613.26886	894
613.78192	916
614.29504	929
614.80804	899
615.32111	940
615.83411	895
616.34711	915
616.86005	905
617.37299	885
617.88593	877
618.39886	873
618.91174	933
619.42462	892
619.9375	909
620.45032	876
620.96313	893
621.47595	857
621.98871	888
622.50146	891
623.01422	867
623.52692	835
624.03967	858
624.55231	886
625.065	824
625.57764	864
626.09027	900
626.60284	849
627.11542	866
627.62799	832
628.14056	864
628.65308	904
629.16559	848
629.6781	847
630.19055	853
630.703	846
631.21539	817
631.72784	845
632.24017	824
632.75256	820
633.26489	800
633.77722	807
634.28955	837
634.80182	788
635.31409	836
635.82635	747
636.33856	835
636.85077	805
637.36292	720
637.87512	780
638.38721	771
638.89935	788
639.41144	742
639.92352	746
640.43561	767
640.94763	799
641.45966	792
641.97162	765
642.48358	742
642.99554	773
643.50751	790
644.01941	752
644.53131	741
645.04315	717
645.55499	697
646.06683	723
646.57861	704
647.09045	716
647.60217	760
648.11395	714
648.62567	681
649.13733	712
649.64905	681
650.16064	694
650.6723	691
651.1839	705
651.6955	702
652.20709	696
652.71863	677
653.23016	672
653.74164	683
654.25311	694
654.76459	663
655.276	649
655.78741	642
656.29883	688
656.81018	660
657.32153	652
657.83289	631
658.34418	670
658.85547	635
659.3667	650
659.87793	641
660.38916	664
660.90033	652
661.4115	620
661.92267	637
662.43378	652
662.94489	613
663.45593	607
663.96698	598
664.47803	651
664.98907	622
665.50006	597
666.01099	626
666.52191	591
667.03284	642
667.54376	590
668.05463	571
668.56549	566
669.07629	601
669.5871	609
670.0979	603
670.60864	556
671.11938	567
671.63007	587
672.14075	587
672.65143	563
673.16205	595
673.67267	612
674.18329	584
674.69385	549
675.20435	563
675.7149	562
676.2254	560
676.73584	560
677.24628	545
677.75671	539
678.26715	603
678.77753	556
679.28784	533
679.79822	510
680.30847	569
680.81879	555
681.32904	523
681.83923	522
682.34949	554
682.85968	527
683.36981	517
683.87994	527
684.39008	560
684.90015	579
685.41022	515
685.92023	520
686.43024	530
686.94025	529
687.4502	512
687.96014	531
688.47003	556
688.97992	510
689.48981	493
689.99963	535
690.50946	491
691.01923	478
691.52899	481
692.03876	484
692.54846	468
693.05817	525
693.56781	500
694.07745	475
694.58704	490
695.09662	478
695.6062	468
696.11572	479
696.62524	463
697.1347	454
697.64417	460
698.15363	492
698.66302	462
699.17242	499
699.68176	463
700.1911	440
700.70044	464
701.20972	478
701.71893	485
702.22815	499
702.73737	457
703.24652	471
703.75568	424
704.26483	458
704.77393	457
705.28302	466
705.79205	431
706.30103	434
706.81006	457
707.31903	416
707.82794	426
708.33685	401
708.84576	454
709.35461	441
709.86346	439
710.37225	428
710.88104	416
711.38977	442
711.8985	424
712.40723	410
712.91589	449
713.42456	443
713.93317	429
714.44177	417
714.95032	421
715.45886	437
715.96735	412
716.47583	407
716.98431	423
717.49274	415
718.00116	422
718.50952	424
719.01788	386
719.52618	434
720.03448	377
720.54272	396
721.05096	413
721.5592	383
722.06738	420
722.57556	385
723.08368	394
723.59174	378
724.09985	398
724.60791	406
725.11591	418
725.6239	398
726.13184	397
726.63977	394
727.14771	405
727.65558	385
728.16339	434
728.67126	431
729.17902	394
729.68683	409
730.19452	407
730.70227	376
731.2099	385
731.71759	388
732.22522	405
732.73279	405
733.24036	400
733.74792	409
734.25543	401
734.76288	391
735.27032	391
735.77777	382
736.28516	383
736.79254	383
737.29987	409
737.80719	381
738.31445	351
738.82172	392
739.32892	373
739.83612	369
740.34326	372
740.8504	393
741.35748	380
741.86456	395
742.37164	373
742.87866	407
743.38562	388
743.89258	393
744.39954	374
744.90643	389
745.41327	385
745.9201	373
746.42694	359
746.93372	374
747.44049	369
747.9472	382
748.45386	353
748.96057	347
749.46716	362
749.97375	388
750.48035	356
750.98688	373
751.49341	372
751.99988	378
752.50635	377
753.01276	356
753.51917	384
754.02551	340
754.53186	366
755.03815	359
755.54443	368
756.05066	373
756.55688	379
757.06305	374
757.56921	370
758.07532	359
758.58142	353
759.08746	383
759.59351	347
760.09949	374
760.60547	365
761.11139	371
761.61725	372
762.12317	369
762.62897	365
763.13483	342
763.64056	355
764.1463	357
764.65204	343
765.15771	362
765.66339	334
766.16901	375
766.67462	348
767.18018	356
767.68567	374
768.19116	326
768.69666	346
769.20209	390
769.70746	343
770.21283	350
770.7182	373
771.22351	354
771.72876	370
772.23401	340
772.73926	357
773.24445	358
773.74957	338
774.2547	343
774.75977	354
775.26483	342
775.76984	343
776.27484	347
776.77979	344
777.28473	328
777.78961	343
778.29449	353
778.79932	341
779.30408	355
779.80884	322
780.3136	335
780.8183	346
781.32294	359
781.82758	353
782.33215	360
782.83673	335
783.34131	335
783.84576	351
784.35028	347
784.85468	346
785.35907	325
785.86346	346
786.3678	351
786.87213	357
787.3764	350
787.88062	346
788.38483	344
788.88898	336
789.39313	339
789.89722	338
790.40131	343
790.90533	323
791.40936	342
791.91333	330
792.4173	347
792.9212	337
793.42505	334
793.92889	336
794.43268	328
794.93646	335
795.44019	331
795.94391	341
796.44757	343
796.95123	320
797.45483	338
797.95837	339
798.46191	316
798.96539	315
799.46887	338
799.97235	334
800.47571	337
800.97906	334
801.48242	350
801.98572	334
802.48895	316
802.99219	332
803.49536	341
803.99854	331
804.50165	332
805.00476	325
805.50781	312
806.01086	339
806.51379	350
807.01678	348
807.51971	337
808.02258	326
808.52539	342
809.02826	315
809.53101	335
810.03375	1508
810.53644	352
811.03912	329
811.54175	356
812.04437	320
812.54694	347
813.04944	325
813.55194	351
814.05444	323
814.55682	315
815.05927	348
815.56158	360
816.0639	337
816.56622	354
817.06842	327
817.57068	348
818.07281	323
818.57495	326
819.07709	322
819.57916	340
820.08118	351
820.58319	325
821.08514	330
821.5871	319
822.08899	340
822.59082	327
823.09265	331
823.59442	339
824.09619	318
824.5979	358
825.09955	319
825.6012	327
826.10278	313
826.60437	340
827.1059	343
827.60736	326
828.10883	325
828.61023	321
829.11163	336
829.61298	327
830.11432	314
830.61554	356
831.11682	324
831.61798	332
832.11914	310
832.6203	362
833.1214	340
833.62244	330
834.12347	313
834.62445	322
835.12537	331
835.62628	333
836.12714	320
836.62799	332
837.12878	325
837.62952	326
838.13025	331
838.63092	333
839.13153	330
839.63214	314
840.13275	337
840.63324	354
841.13373	333
841.63422	334
842.13464	345
842.63501	327
843.13538	333
843.63568	349
844.13593	324
844.63617	353
845.13635	334
845.63647	354
846.1366	335
846.63672	342
847.13672	342
847.63672	349
848.13672	345
848.6366	339
849.13647	332
849.63635	315
850.13617	344
850.63593	334
851.13568	303
851.63538	335
852.13501	324
852.63464	310
853.13422	322
853.63373	327
854.13324	338
854.63275	338
855.13214	331
855.63153	348
856.13086	329
856.63019	320
857.12946	310
857.62866	347
858.12787	352
858.62701	336
859.12616	361
859.62524	332
860.12427	325
860.62323	331
861.12219	323
861.62109	334
862.12	351
862.61884	342
863.11761	351
863.61639	317
864.11511	347
864.61377	335
865.11243	318
865.61102	336
866.10962	343
866.60809	345
867.10663	325
867.60504	332
868.10345	345
868.60181	329
869.10016	330
869.59839	381
870.09668	407
870.59485	484
871.09302	562
871.59113	665
872.08923	729
872.58728	818
873.08527	770
873.58325	880
874.08118	891
874.57904	861
875.0769	876
875.57465	881
876.07245	818
876.57013	843
877.06781	852
877.56549	974
878.06305	925
878.56061	880
879.05817	894
879.5556	894
880.05304	882
880.55042	890
881.04779	883
881.5451	966
882.04236	921
882.53961	974
883.0368	941
883.53394	929
884.03107	914
884.52808	955
885.02515	884
