Date and Time:                Fri Oct 17 07:16:30.466 2025
Software Version:             4.30.30000.0
Temperature (C):              -90
Model:                        DU971P_UVB
Data Type:                    Counts
Acquisition Mode:             Single Scan
Trigger Mode:                 Internal
Exposure Time (secs):         30
Readout Mode:                 Full Vertical Binning
Horizontal binning:           2
Extended Dynamic Range:       off
Horizontally flipped:         false
Vertical Shift Speed (usecs): 9.68
Pixel Readout Rate (MHz):     3
Baseline Clamp:               ON
Clock Amplitude:              Normal
Output Amplifier:             Conventional
Serial Number:                20367
Pre-Amplifier Gain:           4x
Spurious Noise Filter Mode:   No Filter
Photon counted:               false
Data Averaging Filter Mode:   No Filter
SR193i:
Serial Number:                SR-2646
Wavelength (nm):              690
Grating Groove Density (l/mm):300
Grating Blaze:                500nm
Input Side Slit Width (um):   1000



478.32681	308
478.84332	372
479.35983	342
479.87631	378
480.39282	357
480.9093	350
481.42575	354
481.94223	367
482.45868	376
482.97513	380
483.49158	350
484.00803	369
484.52444	353
485.04086	388
485.55728	375
486.07367	372
486.59006	411
487.10645	413
487.62283	404
488.13919	398
488.65555	423
489.17191	409
489.68826	395
490.20459	434
490.72092	424
491.23724	417
491.75354	449
492.26984	434
492.78613	433
493.30243	438
493.8187	461
494.33496	466
494.85123	464
495.36746	495
495.8837	448
496.39993	466
496.91617	482
497.43237	469
497.94858	456
498.46478	466
498.98096	477
499.49713	505
500.01331	498
500.52945	492
501.04562	505
501.56174	461
502.07788	503
502.59399	478
503.11011	489
503.62622	488
504.1423	469
504.65839	445
505.17447	466
505.69052	464
506.20657	486
506.72263	480
507.23865	485
507.75467	506
508.27069	497
508.78668	493
509.30267	525
509.81866	498
510.33463	474
510.85059	459
511.36655	469
511.88248	441
512.39844	488
512.91437	491
513.43024	482
513.94617	485
514.46204	491
514.97791	474
515.49377	446
516.00964	473
516.52551	480
517.04132	477
517.55719	495
518.073	462
518.58881	501
519.10461	481
519.62036	468
520.13617	437
520.65192	475
521.16766	488
521.68341	486
522.1991	501
522.71484	493
523.23053	493
523.74622	458
524.2619	447
524.77759	469
525.29327	456
525.8089	452
526.32452	484
526.84015	455
527.35577	478
527.8714	473
528.38696	496
528.90259	467
529.41815	526
529.93372	460
530.44922	458
530.96478	472
531.48029	514
531.99579	491
532.51129	465
533.02679	454
533.5423	450
534.05774	446
534.57318	471
535.08862	443
535.60406	477
536.11945	468
536.63489	478
537.15027	465
537.66565	472
538.18097	508
538.69635	478
539.21167	466
539.72699	436
540.24231	455
540.75763	475
541.27289	499
541.78821	503
542.30347	466
542.81873	460
543.33392	476
543.84918	493
544.36438	461
544.87958	517
545.39478	472
545.90991	480
546.42511	502
546.94025	494
547.45538	497
547.97052	484
548.4856	474
549.00073	491
549.51581	490
550.03088	475
550.5459	506
551.06097	519
551.57599	481
552.091	514
552.60602	519
553.12097	502
553.63593	519
554.15094	520
554.66583	502
555.18079	517
555.69568	515
556.21063	508
556.72552	541
557.24036	552
557.75525	557
558.27008	548
558.78491	551
559.29974	555
559.81458	550
560.32935	538
560.84412	549
561.35889	543
561.87366	553
562.38837	570
562.90308	561
563.41779	621
563.9325	599
564.44714	608
564.96179	602
565.47644	610
565.99109	607
566.50574	650
567.02032	615
567.53491	680
568.0495	600
568.56403	661
569.07861	659
569.59314	684
570.1076	643
570.62213	662
571.1366	680
571.65106	672
572.16553	700
572.67999	695
573.1944	685
573.7088	693
574.22321	749
574.73755	778
575.25195	687
575.7663	710
576.28058	754
576.79492	747
577.3092	755
577.82349	718
578.33777	789
578.85205	752
579.36627	708
579.88049	720
580.39471	764
580.90887	844
581.42303	784
581.93719	789
582.45135	818
582.96545	806
583.47955	827
583.99365	841
584.50775	824
585.02179	917
585.53583	850
586.04987	897
586.5639	838
587.07788	833
587.59186	863
588.10583	859
588.61975	945
589.13373	858
589.64758	913
590.1615	858
590.67542	876
591.18927	842
591.70306	926
592.21692	895
592.73071	931
593.24451	920
593.7583	938
594.27209	940
594.78583	998
595.29956	939
595.81323	937
596.32697	948
596.84064	974
597.35425	992
597.86792	891
598.38153	984
598.89514	1022
599.40875	975
599.9223	972
600.43585	938
600.9494	935
601.46289	982
601.97638	1014
602.48987	953
603.00336	1030
603.51678	958
604.03021	933
604.54364	1014
605.05701	947
605.57043	916
606.08374	1002
606.59711	957
607.11041	932
607.62372	970
608.13702	970
608.65027	1010
609.16351	954
609.67676	937
610.19	1002
610.70319	931
611.21637	1005
611.72949	955
612.24268	909
612.75574	1044
613.26886	998
613.78192	911
614.29504	910
614.80804	939
615.32111	956
615.83411	872
616.34711	951
616.86005	931
617.37299	921
617.88593	973
618.39886	946
618.91174	954
619.42462	919
619.9375	925
620.45032	955
620.96313	901
621.47595	911
621.98871	909
622.50146	871
623.01422	882
623.52692	924
624.03967	961
624.55231	949
625.065	921
625.57764	910
626.09027	879
626.60284	857
627.11542	813
627.62799	900
628.14056	943
628.65308	832
629.16559	857
629.6781	823
630.19055	835
630.703	913
631.21539	889
631.72784	834
632.24017	888
632.75256	862
633.26489	853
633.77722	826
634.28955	777
634.80182	824
635.31409	773
635.82635	833
636.33856	793
636.85077	835
637.36292	813
637.87512	743
638.38721	805
638.89935	802
639.41144	771
639.92352	802
640.43561	787
640.94763	781
641.45966	756
641.97162	773
642.48358	737
642.99554	750
643.50751	731
644.01941	760
644.53131	706
645.04315	733
645.55499	694
646.06683	722
646.57861	729
647.09045	759
647.60217	725
648.11395	754
648.62567	714
649.13733	679
649.64905	710
650.16064	711
650.6723	655
651.1839	708
651.6955	726
652.20709	700
652.71863	671
653.23016	695
653.74164	704
654.25311	632
654.76459	683
655.276	701
655.78741	659
656.29883	692
656.81018	693
657.32153	674
657.83289	658
658.34418	692
658.85547	697
659.3667	615
659.87793	648
660.38916	673
660.90033	618
661.4115	662
661.92267	625
662.43378	680
662.94489	650
663.45593	677
663.96698	653
664.47803	599
664.98907	618
665.50006	655
666.01099	622
666.52191	585
667.03284	659
667.54376	646
668.05463	634
668.56549	654
669.07629	671
669.5871	599
670.0979	607
670.60864	605
671.11938	618
671.63007	632
672.14075	654
672.65143	634
673.16205	599
673.67267	611
674.18329	615
674.69385	606
675.20435	595
675.7149	604
676.2254	623
676.73584	587
677.24628	577
677.75671	613
678.26715	568
678.77753	582
679.28784	611
679.79822	587
680.30847	566
680.81879	576
681.32904	592
681.83923	593
682.34949	584
682.85968	584
683.36981	565
683.87994	558
684.39008	552
684.90015	564
685.41022	594
685.92023	580
686.43024	594
686.94025	543
687.4502	499
687.96014	543
688.47003	563
688.97992	540
689.48981	579
689.99963	545
690.50946	548
691.01923	570
691.52899	535
692.03876	554
692.54846	533
693.05817	543
693.56781	522
694.07745	501
694.58704	524
695.09662	521
695.6062	490
696.11572	503
696.62524	525
697.1347	530
697.64417	546
698.15363	555
698.66302	520
699.17242	479
699.68176	578
700.1911	500
700.70044	528
701.20972	500
701.71893	518
702.22815	476
702.73737	490
703.24652	489
703.75568	493
704.26483	466
704.77393	498
705.28302	493
705.79205	494
706.30103	513
706.81006	495
707.31903	475
707.82794	516
708.33685	502
708.84576	467
709.35461	489
709.86346	490
710.37225	474
710.88104	491
711.38977	492
711.8985	479
712.40723	492
712.91589	483
713.42456	471
713.93317	500
714.44177	481
714.95032	471
715.45886	491
715.96735	478
716.47583	507
716.98431	496
717.49274	442
718.00116	464
718.50952	468
719.01788	467
719.52618	478
720.03448	483
720.54272	453
721.05096	466
721.5592	472
722.06738	478
722.57556	470
723.08368	439
723.59174	463
724.09985	477
724.60791	469
725.11591	442
725.6239	467
726.13184	437
726.63977	441
727.14771	456
727.65558	458
728.16339	445
728.67126	455
729.17902	485
729.68683	433
730.19452	445
730.70227	450
731.2099	458
731.71759	445
732.22522	439
732.73279	440
733.24036	446
733.74792	446
734.25543	463
734.76288	432
735.27032	444
735.77777	446
736.28516	441
736.79254	447
737.29987	457
737.80719	5809
738.31445	1000
738.82172	435
739.32892	436
739.83612	436
740.34326	450
740.8504	451
741.35748	474
741.86456	425
742.37164	485
742.87866	451
743.38562	419
743.89258	450
744.39954	444
744.90643	414
745.41327	432
745.9201	453
746.42694	415
746.93372	416
747.44049	432
747.9472	416
748.45386	442
748.96057	411
749.46716	399
749.97375	387
750.48035	412
750.98688	437
751.49341	422
751.99988	407
752.50635	425
753.01276	421
753.51917	379
754.02551	444
754.53186	409
755.03815	427
755.54443	384
756.05066	417
756.55688	422
757.06305	409
757.56921	429
758.07532	384
758.58142	435
759.08746	418
759.59351	400
760.09949	416
760.60547	388
761.11139	443
761.61725	405
762.12317	425
762.62897	362
763.13483	420
763.64056	396
764.1463	393
764.65204	365
765.15771	392
765.66339	382
766.16901	390
766.67462	397
767.18018	380
767.68567	391
768.19116	432
768.69666	388
769.20209	400
769.70746	382
770.21283	406
770.7182	401
771.22351	393
771.72876	406
772.23401	407
772.73926	371
773.24445	391
773.74957	403
774.2547	365
774.75977	384
775.26483	391
775.76984	386
776.27484	386
776.77979	375
777.28473	386
777.78961	388
778.29449	369
778.79932	351
779.30408	352
779.80884	372
780.3136	389
780.8183	393
781.32294	377
781.82758	370
782.33215	352
782.83673	389
783.34131	386
783.84576	350
784.35028	371
784.85468	368
785.35907	347
785.86346	374
786.3678	360
786.87213	351
787.3764	378
787.88062	377
788.38483	356
788.88898	358
789.39313	379
789.89722	356
790.40131	335
790.90533	353
791.40936	363
791.91333	350
792.4173	350
792.9212	353
793.42505	337
793.92889	355
794.43268	376
794.93646	342
795.44019	354
795.94391	384
796.44757	349
796.95123	366
797.45483	381
797.95837	350
798.46191	360
798.96539	348
799.46887	360
799.97235	334
800.47571	355
800.97906	351
801.48242	357
801.98572	367
802.48895	367
802.99219	381
803.49536	359
803.99854	342
804.50165	337
805.00476	368
805.50781	353
806.01086	366
806.51379	362
807.01678	333
807.51971	378
808.02258	351
808.52539	345
809.02826	350
809.53101	324
810.03375	341
810.53644	355
811.03912	341
811.54175	366
812.04437	347
812.54694	351
813.04944	335
813.55194	339
814.05444	321
814.55682	342
815.05927	339
815.56158	354
816.0639	343
816.56622	338
817.06842	337
817.57068	353
818.07281	345
818.57495	348
819.07709	349
819.57916	346
820.08118	353
820.58319	337
821.08514	344
821.5871	347
822.08899	365
822.59082	365
823.09265	345
823.59442	337
824.09619	335
824.5979	351
825.09955	334
825.6012	354
826.10278	347
826.60437	333
827.1059	327
827.60736	325
828.10883	335
828.61023	334
829.11163	354
829.61298	329
830.11432	350
830.61554	335
831.11682	353
831.61798	338
832.11914	354
832.6203	367
833.1214	341
833.62244	335
834.12347	357
834.62445	319
835.12537	336
835.62628	335
836.12714	333
836.62799	330
837.12878	317
837.62952	345
838.13025	335
838.63092	339
839.13153	320
839.63214	347
840.13275	332
840.63324	352
841.13373	358
841.63422	346
842.13464	340
842.63501	354
843.13538	334
843.63568	332
844.13593	329
844.63617	338
845.13635	352
845.63647	365
846.1366	319
846.63672	327
847.13672	335
847.63672	340
848.13672	328
848.6366	318
849.13647	349
849.63635	325
850.13617	325
850.63593	328
851.13568	344
851.63538	317
852.13501	347
852.63464	341
853.13422	347
853.63373	331
854.13324	336
854.63275	333
855.13214	350
855.63153	348
856.13086	343
856.63019	377
857.12946	313
857.62866	337
858.12787	328
858.62701	327
859.12616	307
859.62524	330
860.12427	341
860.62323	336
861.12219	333
861.62109	348
862.12	334
862.61884	327
863.11761	331
863.61639	347
864.11511	335
864.61377	335
865.11243	340
865.61102	343
866.10962	334
866.60809	338
867.10663	343
867.60504	328
868.10345	347
868.60181	342
869.10016	342
869.59839	381
870.09668	397
870.59485	468
871.09302	562
871.59113	624
872.08923	712
872.58728	735
873.08527	800
873.58325	809
874.08118	817
874.57904	783
875.0769	864
875.57465	799
876.07245	866
876.57013	793
877.06781	831
877.56549	856
878.06305	832
878.56061	818
879.05817	822
879.5556	879
880.05304	919
880.55042	898
881.04779	946
881.5451	881
882.04236	913
882.53961	899
883.0368	955
883.53394	858
884.03107	902
884.52808	919
885.02515	860
