Date and Time:                Fri Oct 17 07:03:20.547 2025
Software Version:             4.30.30000.0
Temperature (C):              -90
Model:                        DU971P_UVB
Data Type:                    Counts
Acquisition Mode:             Single Scan
Trigger Mode:                 Internal
Exposure Time (secs):         30
Readout Mode:                 Full Vertical Binning
Horizontal binning:           2
Extended Dynamic Range:       off
Horizontally flipped:         false
Vertical Shift Speed (usecs): 9.68
Pixel Readout Rate (MHz):     3
Baseline Clamp:               ON
Clock Amplitude:              Normal
Output Amplifier:             Conventional
Serial Number:                20367
Pre-Amplifier Gain:           4x
Spurious Noise Filter Mode:   No Filter
Photon counted:               false
Data Averaging Filter Mode:   No Filter
SR193i:
Serial Number:                SR-2646
Wavelength (nm):              690
Grating Groove Density (l/mm):300
Grating Blaze:                500nm
Input Side Slit Width (um):   1000



478.32681	311
478.84332	372
479.35983	381
479.87631	377
480.39282	355
480.9093	407
481.42575	369
481.94223	341
482.45868	358
482.97513	362
483.49158	399
484.00803	395
484.52444	382
485.04086	401
485.55728	397
486.07367	426
486.59006	414
487.10645	402
487.62283	412
488.13919	469
488.65555	412
489.17191	465
489.68826	474
490.20459	448
490.72092	483
491.23724	495
491.75354	488
492.26984	477
492.78613	474
493.30243	541
493.8187	494
494.33496	516
494.85123	511
495.36746	541
495.8837	524
496.39993	555
496.91617	529
497.43237	552
497.94858	573
498.46478	591
498.98096	576
499.49713	583
500.01331	567
500.52945	563
501.04562	545
501.56174	571
502.07788	565
502.59399	588
503.11011	584
503.62622	563
504.1423	577
504.65839	589
505.17447	540
505.69052	585
506.20657	576
506.72263	590
507.23865	598
507.75467	581
508.27069	590
508.78668	569
509.30267	543
509.81866	591
510.33463	585
510.85059	584
511.36655	559
511.88248	600
512.39844	579
512.91437	581
513.43024	584
513.94617	569
514.46204	562
514.97791	553
515.49377	523
516.00964	561
516.52551	567
517.04132	562
517.55719	572
518.073	573
518.58881	582
519.10461	565
519.62036	524
520.13617	555
520.65192	567
521.16766	603
521.68341	564
522.1991	560
522.71484	563
523.23053	528
523.74622	500
524.2619	499
524.77759	560
525.29327	530
525.8089	559
526.32452	511
526.84015	533
527.35577	553
527.8714	552
528.38696	549
528.90259	533
529.41815	577
529.93372	531
530.44922	538
530.96478	569
531.48029	512
531.99579	532
532.51129	563
533.02679	545
533.5423	544
534.05774	519
534.57318	541
535.08862	550
535.60406	533
536.11945	526
536.63489	537
537.15027	521
537.66565	516
538.18097	506
538.69635	524
539.21167	543
539.72699	547
540.24231	555
540.75763	545
541.27289	542
541.78821	527
542.30347	537
542.81873	535
543.33392	564
543.84918	534
544.36438	529
544.87958	559
545.39478	528
545.90991	535
546.42511	532
546.94025	524
547.45538	521
547.97052	543
548.4856	527
549.00073	507
549.51581	553
550.03088	530
550.5459	510
551.06097	551
551.57599	558
552.091	561
552.60602	484
553.12097	583
553.63593	549
554.15094	543
554.66583	554
555.18079	576
555.69568	560
556.21063	577
556.72552	528
557.24036	563
557.75525	597
558.27008	556
558.78491	574
559.29974	563
559.81458	586
560.32935	563
560.84412	547
561.35889	608
561.87366	565
562.38837	579
562.90308	579
563.41779	608
563.9325	601
564.44714	615
564.96179	609
565.47644	618
565.99109	604
566.50574	601
567.02032	627
567.53491	663
568.0495	665
568.56403	642
569.07861	658
569.59314	642
570.1076	650
570.62213	627
571.1366	667
571.65106	642
572.16553	722
572.67999	705
573.1944	694
573.7088	730
574.22321	672
574.73755	672
575.25195	688
575.7663	709
576.28058	735
576.79492	723
577.3092	768
577.82349	719
578.33777	732
578.85205	707
579.36627	743
579.88049	754
580.39471	781
580.90887	746
581.42303	750
581.93719	793
582.45135	792
582.96545	801
583.47955	817
583.99365	823
584.50775	808
585.02179	814
585.53583	832
586.04987	847
586.5639	865
587.07788	798
587.59186	880
588.10583	830
588.61975	807
589.13373	830
589.64758	913
590.1615	868
590.67542	866
591.18927	892
591.70306	873
592.21692	869
592.73071	927
593.24451	882
593.7583	900
594.27209	885
594.78583	895
595.29956	916
595.81323	891
596.32697	912
596.84064	871
597.35425	902
597.86792	921
598.38153	934
598.89514	921
599.40875	919
599.9223	880
600.43585	898
600.9494	936
601.46289	927
601.97638	953
602.48987	884
603.00336	978
603.51678	928
604.03021	902
604.54364	963
605.05701	956
605.57043	976
606.08374	919
606.59711	882
607.11041	940
607.62372	932
608.13702	951
608.65027	919
609.16351	946
609.67676	924
610.19	964
610.70319	957
611.21637	956
611.72949	920
612.24268	916
612.75574	976
613.26886	959
613.78192	851
614.29504	966
614.80804	886
615.32111	925
615.83411	911
616.34711	930
616.86005	932
617.37299	919
617.88593	901
618.39886	872
618.91174	898
619.42462	959
619.9375	913
620.45032	874
620.96313	885
621.47595	928
621.98871	928
622.50146	884
623.01422	913
623.52692	912
624.03967	926
624.55231	881
625.065	831
625.57764	878
626.09027	880
626.60284	880
627.11542	873
627.62799	850
628.14056	862
628.65308	848
629.16559	850
629.6781	841
630.19055	839
630.703	879
631.21539	870
631.72784	876
632.24017	819
632.75256	868
633.26489	798
633.77722	792
634.28955	840
634.80182	782
635.31409	837
635.82635	818
636.33856	770
636.85077	789
637.36292	834
637.87512	759
638.38721	799
638.89935	856
639.41144	782
639.92352	791
640.43561	799
640.94763	757
641.45966	766
641.97162	784
642.48358	744
642.99554	766
643.50751	790
644.01941	749
644.53131	774
645.04315	726
645.55499	733
646.06683	786
646.57861	712
647.09045	709
647.60217	727
648.11395	724
648.62567	745
649.13733	734
649.64905	739
650.16064	740
650.6723	730
651.1839	684
651.6955	711
652.20709	711
652.71863	693
653.23016	673
653.74164	698
654.25311	699
654.76459	670
655.276	708
655.78741	677
656.29883	712
656.81018	716
657.32153	664
657.83289	629
658.34418	713
658.85547	646
659.3667	610
659.87793	636
660.38916	647
660.90033	681
661.4115	662
661.92267	642
662.43378	687
662.94489	637
663.45593	604
663.96698	641
664.47803	576
664.98907	653
665.50006	600
666.01099	650
666.52191	572
667.03284	618
667.54376	622
668.05463	581
668.56549	633
669.07629	628
669.5871	578
670.0979	596
670.60864	616
671.11938	619
671.63007	577
672.14075	565
672.65143	599
673.16205	581
673.67267	626
674.18329	609
674.69385	577
675.20435	611
675.7149	564
676.2254	562
676.73584	580
677.24628	579
677.75671	564
678.26715	554
678.77753	543
679.28784	607
679.79822	563
680.30847	525
680.81879	566
681.32904	586
681.83923	550
682.34949	524
682.85968	581
683.36981	527
683.87994	535
684.39008	533
684.90015	562
685.41022	550
685.92023	491
686.43024	536
686.94025	505
687.4502	519
687.96014	562
688.47003	510
688.97992	544
689.48981	509
689.99963	508
690.50946	489
691.01923	483
691.52899	503
692.03876	503
692.54846	472
693.05817	510
693.56781	463
694.07745	521
694.58704	496
695.09662	481
695.6062	522
696.11572	489
696.62524	439
697.1347	482
697.64417	463
698.15363	509
698.66302	484
699.17242	469
699.68176	461
700.1911	483
700.70044	486
701.20972	460
701.71893	442
702.22815	449
702.73737	455
703.24652	480
703.75568	460
704.26483	485
704.77393	466
705.28302	452
705.79205	439
706.30103	416
706.81006	442
707.31903	439
707.82794	423
708.33685	429
708.84576	465
709.35461	440
709.86346	426
710.37225	421
710.88104	451
711.38977	451
711.8985	445
712.40723	431
712.91589	446
713.42456	430
713.93317	424
714.44177	443
714.95032	443
715.45886	452
715.96735	398
716.47583	400
716.98431	428
717.49274	411
718.00116	420
718.50952	413
719.01788	415
719.52618	415
720.03448	399
720.54272	428
721.05096	380
721.5592	383
722.06738	426
722.57556	417
723.08368	411
723.59174	414
724.09985	410
724.60791	394
725.11591	388
725.6239	406
726.13184	374
726.63977	396
727.14771	370
727.65558	399
728.16339	412
728.67126	409
729.17902	401
729.68683	420
730.19452	407
730.70227	403
731.2099	397
731.71759	401
732.22522	387
732.73279	389
733.24036	394
733.74792	410
734.25543	369
734.76288	384
735.27032	367
735.77777	392
736.28516	405
736.79254	381
737.29987	364
737.80719	350
738.31445	384
738.82172	365
739.32892	371
739.83612	382
740.34326	372
740.8504	377
741.35748	390
741.86456	356
742.37164	370
742.87866	364
743.38562	352
743.89258	374
744.39954	385
744.90643	396
745.41327	367
745.9201	379
746.42694	383
746.93372	390
747.44049	373
747.9472	409
748.45386	339
748.96057	354
749.46716	391
749.97375	358
750.48035	387
750.98688	377
751.49341	356
751.99988	364
752.50635	362
753.01276	343
753.51917	356
754.02551	369
754.53186	360
755.03815	352
755.54443	377
756.05066	362
756.55688	367
757.06305	332
757.56921	366
758.07532	385
758.58142	372
759.08746	367
759.59351	387
760.09949	384
760.60547	353
761.11139	357
761.61725	361
762.12317	349
762.62897	362
763.13483	377
763.64056	367
764.1463	358
764.65204	351
765.15771	363
765.66339	335
766.16901	379
766.67462	324
767.18018	370
767.68567	358
768.19116	354
768.69666	313
769.20209	339
769.70746	370
770.21283	355
770.7182	351
771.22351	367
771.72876	358
772.23401	346
772.73926	347
773.24445	360
773.74957	381
774.2547	357
774.75977	343
775.26483	359
775.76984	368
776.27484	367
776.77979	334
777.28473	360
777.78961	337
778.29449	328
778.79932	345
779.30408	379
779.80884	349
780.3136	342
780.8183	339
781.32294	351
781.82758	352
782.33215	355
782.83673	346
783.34131	341
783.84576	351
784.35028	330
784.85468	332
785.35907	351
785.86346	339
786.3678	358
786.87213	330
787.3764	332
787.88062	356
788.38483	356
788.88898	343
789.39313	331
789.89722	339
790.40131	317
790.90533	300
791.40936	317
791.91333	311
792.4173	345
792.9212	336
793.42505	326
793.92889	330
794.43268	347
794.93646	334
795.44019	338
795.94391	338
796.44757	348
796.95123	338
797.45483	340
797.95837	315
798.46191	334
798.96539	343
799.46887	336
799.97235	318
800.47571	338
800.97906	333
801.48242	342
801.98572	327
802.48895	324
802.99219	318
803.49536	324
803.99854	360
804.50165	326
805.00476	309
805.50781	325
806.01086	300
806.51379	356
807.01678	339
807.51971	338
808.02258	353
808.52539	342
809.02826	340
809.53101	326
810.03375	321
810.53644	325
811.03912	323
811.54175	336
812.04437	326
812.54694	328
813.04944	348
813.55194	359
814.05444	347
814.55682	335
815.05927	320
815.56158	348
816.0639	318
816.56622	318
817.06842	329
817.57068	344
818.07281	354
818.57495	303
819.07709	315
819.57916	315
820.08118	326
820.58319	329
821.08514	318
821.5871	314
822.08899	315
822.59082	325
823.09265	339
823.59442	336
824.09619	333
824.5979	331
825.09955	336
825.6012	342
826.10278	332
826.60437	333
827.1059	319
827.60736	315
828.10883	332
828.61023	354
829.11163	336
829.61298	295
830.11432	329
830.61554	335
831.11682	319
831.61798	325
832.11914	322
832.6203	327
833.1214	327
833.62244	315
834.12347	308
834.62445	291
835.12537	316
835.62628	325
836.12714	337
836.62799	337
837.12878	324
837.62952	324
838.13025	321
838.63092	317
839.13153	325
839.63214	332
840.13275	342
840.63324	316
841.13373	332
841.63422	321
842.13464	347
842.63501	343
843.13538	338
843.63568	321
844.13593	320
844.63617	320
845.13635	326
845.63647	309
846.1366	330
846.63672	351
847.13672	318
847.63672	338
848.13672	329
848.6366	332
849.13647	332
849.63635	342
850.13617	326
850.63593	337
851.13568	332
851.63538	333
852.13501	349
852.63464	329
853.13422	359
853.63373	335
854.13324	317
854.63275	335
855.13214	325
855.63153	336
856.13086	344
856.63019	349
857.12946	353
857.62866	344
858.12787	348
858.62701	330
859.12616	315
859.62524	332
860.12427	352
860.62323	349
861.12219	317
861.62109	314
862.12	351
862.61884	343
863.11761	313
863.61639	312
864.11511	340
864.61377	325
865.11243	333
865.61102	344
866.10962	318
866.60809	328
867.10663	341
867.60504	364
868.10345	360
868.60181	337
869.10016	350
869.59839	360
870.09668	388
870.59485	490
871.09302	570
871.59113	702
872.08923	747
872.58728	817
873.08527	831
873.58325	860
874.08118	932
874.57904	873
875.0769	861
875.57465	944
876.07245	922
876.57013	946
877.06781	911
877.56549	871
878.06305	924
878.56061	930
879.05817	917
879.5556	883
880.05304	930
880.55042	920
881.04779	969
881.5451	920
882.04236	940
882.53961	933
883.0368	925
883.53394	954
884.03107	962
884.52808	959
885.02515	916
