Date and Time:                Thu Oct 30 08:34:53.862 2025
Software Version:             4.30.30000.0
Temperature (C):              -90
Model:                        DU971P_UVB
Data Type:                    Counts
Acquisition Mode:             Single Scan
Trigger Mode:                 Internal
Exposure Time (secs):         30
Readout Mode:                 Full Vertical Binning
Horizontal binning:           2
Extended Dynamic Range:       off
Horizontally flipped:         false
Vertical Shift Speed (usecs): 9.68
Pixel Readout Rate (MHz):     3
Baseline Clamp:               ON
Clock Amplitude:              Normal
Output Amplifier:             Conventional
Serial Number:                20367
Pre-Amplifier Gain:           4x
Spurious Noise Filter Mode:   No Filter
Photon counted:               false
Data Averaging Filter Mode:   No Filter
SR193i:
Serial Number:                SR-2646
Wavelength (nm):              690
Grating Groove Density (l/mm):300
Grating Blaze:                500nm
Input Side Slit Width (um):   1000



478.32681	271
478.84332	316
479.35983	296
479.87631	309
480.39282	338
480.9093	321
481.42575	335
481.94223	309
482.45868	333
482.97513	315
483.49158	325
484.00803	337
484.52444	322
485.04086	328
485.55728	343
486.07367	317
486.59006	330
487.10645	322
487.62283	338
488.13919	338
488.65555	328
489.17191	349
489.68826	338
490.20459	327
490.72092	324
491.23724	347
491.75354	311
492.26984	360
492.78613	331
493.30243	321
493.8187	322
494.33496	356
494.85123	312
495.36746	331
495.8837	344
496.39993	361
496.91617	384
497.43237	348
497.94858	353
498.46478	351
498.98096	331
499.49713	384
500.01331	342
500.52945	358
501.04562	367
501.56174	369
502.07788	333
502.59399	343
503.11011	377
503.62622	364
504.1423	351
504.65839	341
505.17447	344
505.69052	369
506.20657	336
506.72263	328
507.23865	353
507.75467	346
508.27069	359
508.78668	354
509.30267	341
509.81866	361
510.33463	342
510.85059	332
511.36655	347
511.88248	379
512.39844	365
512.91437	344
513.43024	356
513.94617	362
514.46204	346
514.97791	349
515.49377	330
516.00964	350
516.52551	322
517.04132	363
517.55719	344
518.073	340
518.58881	340
519.10461	339
519.62036	360
520.13617	351
520.65192	357
521.16766	339
521.68341	344
522.1991	362
522.71484	337
523.23053	362
523.74622	340
524.2619	320
524.77759	334
525.29327	370
525.8089	338
526.32452	368
526.84015	348
527.35577	350
527.8714	387
528.38696	349
528.90259	373
529.41815	343
529.93372	345
530.44922	355
530.96478	370
531.48029	333
531.99579	343
532.51129	370
533.02679	360
533.5423	348
534.05774	318
534.57318	366
535.08862	346
535.60406	345
536.11945	337
536.63489	333
537.15027	345
537.66565	330
538.18097	372
538.69635	340
539.21167	337
539.72699	350
540.24231	364
540.75763	324
541.27289	341
541.78821	372
542.30347	336
542.81873	350
543.33392	360
543.84918	329
544.36438	351
544.87958	338
545.39478	344
545.90991	334
546.42511	351
546.94025	372
547.45538	355
547.97052	331
548.4856	353
549.00073	337
549.51581	346
550.03088	325
550.5459	345
551.06097	329
551.57599	353
552.091	332
552.60602	342
553.12097	333
553.63593	339
554.15094	335
554.66583	356
555.18079	331
555.69568	332
556.21063	340
556.72552	342
557.24036	333
557.75525	344
558.27008	335
558.78491	337
559.29974	349
559.81458	339
560.32935	357
560.84412	331
561.35889	329
561.87366	337
562.38837	345
562.90308	326
563.41779	334
563.9325	350
564.44714	324
564.96179	321
565.47644	351
565.99109	328
566.50574	346
567.02032	329
567.53491	358
568.0495	357
568.56403	332
569.07861	335
569.59314	332
570.1076	350
570.62213	330
571.1366	325
571.65106	334
572.16553	338
572.67999	345
573.1944	325
573.7088	337
574.22321	357
574.73755	342
575.25195	338
575.7663	342
576.28058	322
576.79492	331
577.3092	343
577.82349	323
578.33777	351
578.85205	329
579.36627	346
579.88049	319
580.39471	340
580.90887	326
581.42303	325
581.93719	314
582.45135	337
582.96545	334
583.47955	321
583.99365	306
584.50775	347
585.02179	324
585.53583	344
586.04987	340
586.5639	322
587.07788	334
587.59186	337
588.10583	341
588.61975	317
589.13373	335
589.64758	325
590.1615	337
590.67542	340
591.18927	330
591.70306	308
592.21692	335
592.73071	326
593.24451	330
593.7583	351
594.27209	343
594.78583	324
595.29956	318
595.81323	337
596.32697	332
596.84064	305
597.35425	336
597.86792	337
598.38153	324
598.89514	345
599.40875	338
599.9223	318
600.43585	320
600.9494	308
601.46289	333
601.97638	315
602.48987	327
603.00336	310
603.51678	335
604.03021	345
604.54364	331
605.05701	334
605.57043	316
606.08374	314
606.59711	345
607.11041	312
607.62372	320
608.13702	320
608.65027	344
609.16351	331
609.67676	337
610.19	312
610.70319	335
611.21637	330
611.72949	317
612.24268	305
612.75574	326
613.26886	346
613.78192	333
614.29504	318
614.80804	321
615.32111	319
615.83411	332
616.34711	301
616.86005	329
617.37299	320
617.88593	321
618.39886	301
618.91174	325
619.42462	316
619.9375	324
620.45032	332
620.96313	333
621.47595	337
621.98871	335
622.50146	331
623.01422	324
623.52692	345
624.03967	322
624.55231	301
625.065	318
625.57764	329
626.09027	300
626.60284	344
627.11542	334
627.62799	321
628.14056	336
628.65308	333
629.16559	311
629.6781	320
630.19055	311
630.703	307
631.21539	325
631.72784	289
632.24017	329
632.75256	335
633.26489	328
633.77722	317
634.28955	345
634.80182	313
635.31409	327
635.82635	328
636.33856	319
636.85077	336
637.36292	332
637.87512	319
638.38721	320
638.89935	315
639.41144	307
639.92352	314
640.43561	297
640.94763	334
641.45966	342
641.97162	313
642.48358	320
642.99554	326
643.50751	329
644.01941	333
644.53131	312
645.04315	333
645.55499	313
646.06683	332
646.57861	330
647.09045	336
647.60217	337
648.11395	295
648.62567	304
649.13733	310
649.64905	322
650.16064	319
650.6723	318
651.1839	325
651.6955	334
652.20709	329
652.71863	330
653.23016	325
653.74164	340
654.25311	327
654.76459	333
655.276	322
655.78741	338
656.29883	329
656.81018	334
657.32153	317
657.83289	335
658.34418	342
658.85547	342
659.3667	310
659.87793	318
660.38916	343
660.90033	323
661.4115	334
661.92267	311
662.43378	324
662.94489	336
663.45593	324
663.96698	310
664.47803	325
664.98907	313
665.50006	296
666.01099	318
666.52191	330
667.03284	320
667.54376	317
668.05463	328
668.56549	313
669.07629	305
669.5871	323
670.0979	310
670.60864	338
671.11938	317
671.63007	326
672.14075	329
672.65143	320
673.16205	320
673.67267	315
674.18329	307
674.69385	332
675.20435	315
675.7149	333
676.2254	342
676.73584	319
677.24628	337
677.75671	314
678.26715	322
678.77753	314
679.28784	308
679.79822	321
680.30847	341
680.81879	332
681.32904	315
681.83923	328
682.34949	330
682.85968	317
683.36981	322
683.87994	329
684.39008	318
684.90015	322
685.41022	323
685.92023	329
686.43024	314
686.94025	342
687.4502	309
687.96014	320
688.47003	326
688.97992	320
689.48981	329
689.99963	314
690.50946	326
691.01923	323
691.52899	312
692.03876	323
692.54846	320
693.05817	310
693.56781	335
694.07745	306
694.58704	316
695.09662	325
695.6062	293
696.11572	319
696.62524	328
697.1347	303
697.64417	313
698.15363	309
698.66302	312
699.17242	314
699.68176	320
700.1911	332
700.70044	329
701.20972	315
701.71893	324
702.22815	308
702.73737	305
703.24652	323
703.75568	316
704.26483	325
704.77393	317
705.28302	317
705.79205	307
706.30103	300
706.81006	306
707.31903	329
707.82794	319
708.33685	323
708.84576	317
709.35461	309
709.86346	327
710.37225	304
710.88104	314
711.38977	326
711.8985	317
712.40723	320
712.91589	312
713.42456	318
713.93317	321
714.44177	329
714.95032	305
715.45886	325
715.96735	315
716.47583	326
716.98431	308
717.49274	327
718.00116	324
718.50952	323
719.01788	325
719.52618	323
720.03448	328
720.54272	328
721.05096	314
721.5592	308
722.06738	329
722.57556	295
723.08368	327
723.59174	322
724.09985	339
724.60791	318
725.11591	308
725.6239	299
726.13184	345
726.63977	302
727.14771	325
727.65558	331
728.16339	312
728.67126	317
729.17902	326
729.68683	326
730.19452	292
730.70227	317
731.2099	320
731.71759	324
732.22522	337
732.73279	327
733.24036	307
733.74792	334
734.25543	326
734.76288	329
735.27032	333
735.77777	303
736.28516	326
736.79254	310
737.29987	319
737.80719	319
738.31445	302
738.82172	305
739.32892	306
739.83612	300
740.34326	338
740.8504	320
741.35748	331
741.86456	303
742.37164	311
742.87866	304
743.38562	299
743.89258	312
744.39954	293
744.90643	301
745.41327	325
745.9201	306
746.42694	321
746.93372	324
747.44049	299
747.9472	332
748.45386	299
748.96057	304
749.46716	326
749.97375	291
750.48035	328
750.98688	316
751.49341	310
751.99988	325
752.50635	297
753.01276	339
753.51917	309
754.02551	302
754.53186	304
755.03815	312
755.54443	301
756.05066	298
756.55688	322
757.06305	332
757.56921	312
758.07532	319
758.58142	312
759.08746	314
759.59351	304
760.09949	338
760.60547	315
761.11139	339
761.61725	322
762.12317	338
762.62897	311
763.13483	309
763.64056	293
764.1463	314
764.65204	316
765.15771	309
765.66339	320
766.16901	311
766.67462	314
767.18018	327
767.68567	307
768.19116	311
768.69666	308
769.20209	298
769.70746	313
770.21283	328
770.7182	307
771.22351	320
771.72876	335
772.23401	310
772.73926	330
773.24445	323
773.74957	317
774.2547	327
774.75977	299
775.26483	319
775.76984	311
776.27484	350
776.77979	291
777.28473	328
777.78961	302
778.29449	325
778.79932	318
779.30408	304
779.80884	324
780.3136	304
780.8183	320
781.32294	316
781.82758	320
782.33215	326
782.83673	325
783.34131	308
783.84576	312
784.35028	315
784.85468	302
785.35907	329
785.86346	297
786.3678	326
786.87213	319
787.3764	327
787.88062	325
788.38483	326
788.88898	330
789.39313	303
789.89722	328
790.40131	297
790.90533	320
791.40936	327
791.91333	324
792.4173	311
792.9212	317
793.42505	332
793.92889	305
794.43268	310
794.93646	323
795.44019	312
795.94391	317
796.44757	329
796.95123	293
797.45483	301
797.95837	320
798.46191	313
798.96539	317
799.46887	317
799.97235	322
800.47571	320
800.97906	308
801.48242	308
801.98572	342
802.48895	309
802.99219	297
803.49536	291
803.99854	312
804.50165	325
805.00476	319
805.50781	328
806.01086	316
806.51379	328
807.01678	330
807.51971	312
808.02258	332
808.52539	309
809.02826	305
809.53101	313
810.03375	311
810.53644	321
811.03912	303
811.54175	337
812.04437	301
812.54694	289
813.04944	327
813.55194	317
814.05444	334
814.55682	309
815.05927	315
815.56158	305
816.0639	326
816.56622	324
817.06842	315
817.57068	316
818.07281	316
818.57495	294
819.07709	312
819.57916	322
820.08118	347
820.58319	319
821.08514	318
821.5871	322
822.08899	316
822.59082	316
823.09265	303
823.59442	317
824.09619	319
824.5979	306
825.09955	319
825.6012	290
826.10278	310
826.60437	322
827.1059	314
827.60736	298
828.10883	298
828.61023	307
829.11163	300
829.61298	306
830.11432	315
830.61554	321
831.11682	337
831.61798	310
832.11914	328
832.6203	312
833.1214	328
833.62244	313
834.12347	303
834.62445	322
835.12537	331
835.62628	298
836.12714	323
836.62799	318
837.12878	323
837.62952	318
838.13025	301
838.63092	303
839.13153	314
839.63214	327
840.13275	307
840.63324	310
841.13373	313
841.63422	314
842.13464	318
842.63501	315
843.13538	325
843.63568	320
844.13593	325
844.63617	307
845.13635	343
845.63647	333
846.1366	319
846.63672	334
847.13672	322
847.63672	296
848.13672	312
848.6366	335
849.13647	307
849.63635	317
850.13617	319
850.63593	300
851.13568	306
851.63538	317
852.13501	303
852.63464	296
853.13422	321
853.63373	319
854.13324	310
854.63275	308
855.13214	289
855.63153	315
856.13086	327
856.63019	315
857.12946	344
857.62866	282
858.12787	330
858.62701	332
859.12616	313
859.62524	302
860.12427	328
860.62323	308
861.12219	319
861.62109	318
862.12	309
862.61884	302
863.11761	298
863.61639	326
864.11511	328
864.61377	302
865.11243	295
865.61102	299
866.10962	325
866.60809	309
867.10663	309
867.60504	333
868.10345	318
868.60181	336
869.10016	304
869.59839	322
870.09668	324
870.59485	368
871.09302	348
871.59113	394
872.08923	401
872.58728	410
873.08527	390
873.58325	459
874.08118	435
874.57904	471
875.0769	433
875.57465	432
876.07245	439
876.57013	463
877.06781	447
877.56549	466
878.06305	442
878.56061	470
879.05817	449
879.5556	473
880.05304	447
880.55042	449
881.04779	487
881.5451	474
882.04236	499
882.53961	471
883.0368	449
883.53394	464
884.03107	463
884.52808	457
885.02515	486
