Date and Time:                Sat Oct 18 08:42:31.546 2025
Software Version:             4.30.30000.0
Temperature (C):              -90
Model:                        DU971P_UVB
Data Type:                    Counts
Acquisition Mode:             Single Scan
Trigger Mode:                 Internal
Exposure Time (secs):         30
Readout Mode:                 Full Vertical Binning
Horizontal binning:           2
Extended Dynamic Range:       off
Horizontally flipped:         false
Vertical Shift Speed (usecs): 9.68
Pixel Readout Rate (MHz):     3
Baseline Clamp:               ON
Clock Amplitude:              Normal
Output Amplifier:             Conventional
Serial Number:                20367
Pre-Amplifier Gain:           4x
Spurious Noise Filter Mode:   No Filter
Photon counted:               false
Data Averaging Filter Mode:   No Filter
SR193i:
Serial Number:                SR-2646
Wavelength (nm):              690
Grating Groove Density (l/mm):300
Grating Blaze:                500nm
Input Side Slit Width (um):   1000



478.32681	302
478.84332	377
479.35983	365
479.87631	374
480.39282	370
480.9093	367
481.42575	371
481.94223	404
482.45868	353
482.97513	383
483.49158	368
484.00803	398
484.52444	404
485.04086	392
485.55728	444
486.07367	420
486.59006	418
487.10645	451
487.62283	439
488.13919	464
488.65555	484
489.17191	481
489.68826	501
490.20459	482
490.72092	508
491.23724	541
491.75354	519
492.26984	518
492.78613	573
493.30243	551
493.8187	544
494.33496	559
494.85123	578
495.36746	586
495.8837	571
496.39993	626
496.91617	620
497.43237	618
497.94858	642
498.46478	667
498.98096	648
499.49713	654
500.01331	707
500.52945	671
501.04562	676
501.56174	635
502.07788	669
502.59399	640
503.11011	655
503.62622	650
504.1423	619
504.65839	663
505.17447	695
505.69052	663
506.20657	680
506.72263	691
507.23865	650
507.75467	701
508.27069	692
508.78668	684
509.30267	681
509.81866	667
510.33463	700
510.85059	634
511.36655	655
511.88248	709
512.39844	716
512.91437	659
513.43024	684
513.94617	654
514.46204	657
514.97791	643
515.49377	700
516.00964	698
516.52551	641
517.04132	637
517.55719	701
518.073	665
518.58881	657
519.10461	631
519.62036	645
520.13617	654
520.65192	663
521.16766	671
521.68341	680
522.1991	665
522.71484	691
523.23053	683
523.74622	669
524.2619	646
524.77759	629
525.29327	653
525.8089	664
526.32452	598
526.84015	673
527.35577	671
527.8714	661
528.38696	646
528.90259	636
529.41815	658
529.93372	617
530.44922	573
530.96478	663
531.48029	652
531.99579	651
532.51129	647
533.02679	639
533.5423	706
534.05774	690
534.57318	613
535.08862	611
535.60406	668
536.11945	657
536.63489	647
537.15027	643
537.66565	638
538.18097	622
538.69635	629
539.21167	634
539.72699	576
540.24231	602
540.75763	610
541.27289	623
541.78821	666
542.30347	636
542.81873	650
543.33392	625
543.84918	643
544.36438	576
544.87958	627
545.39478	627
545.90991	640
546.42511	666
546.94025	628
547.45538	617
547.97052	620
548.4856	630
549.00073	636
549.51581	622
550.03088	623
550.5459	639
551.06097	649
551.57599	641
552.091	625
552.60602	660
553.12097	648
553.63593	680
554.15094	669
554.66583	662
555.18079	670
555.69568	672
556.21063	628
556.72552	701
557.24036	701
557.75525	735
558.27008	700
558.78491	671
559.29974	668
559.81458	657
560.32935	670
560.84412	683
561.35889	693
561.87366	692
562.38837	725
562.90308	739
563.41779	669
563.9325	720
564.44714	770
564.96179	699
565.47644	719
565.99109	732
566.50574	797
567.02032	786
567.53491	767
568.0495	830
568.56403	831
569.07861	778
569.59314	821
570.1076	829
570.62213	878
571.1366	852
571.65106	855
572.16553	817
572.67999	855
573.1944	897
573.7088	870
574.22321	935
574.73755	881
575.25195	864
575.7663	860
576.28058	909
576.79492	908
577.3092	927
577.82349	901
578.33777	907
578.85205	966
579.36627	938
579.88049	966
580.39471	1009
580.90887	999
581.42303	995
581.93719	1046
582.45135	1031
582.96545	989
583.47955	1029
583.99365	1035
584.50775	1024
585.02179	1079
585.53583	1048
586.04987	1089
586.5639	1101
587.07788	1103
587.59186	1077
588.10583	1063
588.61975	1103
589.13373	1105
589.64758	1142
590.1615	1130
590.67542	1128
591.18927	1124
591.70306	1124
592.21692	1152
592.73071	1189
593.24451	1111
593.7583	1153
594.27209	1248
594.78583	1184
595.29956	1268
595.81323	1141
596.32697	1167
596.84064	1203
597.35425	1240
597.86792	1197
598.38153	1281
598.89514	1234
599.40875	1200
599.9223	1165
600.43585	1246
600.9494	1246
601.46289	1246
601.97638	1225
602.48987	1250
603.00336	1277
603.51678	1203
604.03021	1294
604.54364	1253
605.05701	1254
605.57043	1298
606.08374	1310
606.59711	1301
607.11041	1259
607.62372	1322
608.13702	1230
608.65027	1230
609.16351	1294
609.67676	1285
610.19	1307
610.70319	1314
611.21637	1269
611.72949	1253
612.24268	1323
612.75574	1310
613.26886	1318
613.78192	1351
614.29504	1295
614.80804	1278
615.32111	1252
615.83411	1379
616.34711	1299
616.86005	1363
617.37299	1297
617.88593	1260
618.39886	1273
618.91174	1273
619.42462	1315
619.9375	1255
620.45032	1303
620.96313	1220
621.47595	1245
621.98871	1300
622.50146	1294
623.01422	1282
623.52692	1264
624.03967	1242
624.55231	1278
625.065	1214
625.57764	1321
626.09027	1198
626.60284	1183
627.11542	1209
627.62799	1285
628.14056	1250
628.65308	1190
629.16559	1258
629.6781	1296
630.19055	1259
630.703	1217
631.21539	1241
631.72784	1224
632.24017	1263
632.75256	1162
633.26489	1252
633.77722	1286
634.28955	1203
634.80182	1227
635.31409	1252
635.82635	1248
636.33856	1200
636.85077	1224
637.36292	1150
637.87512	1182
638.38721	1257
638.89935	1227
639.41144	1220
639.92352	1211
640.43561	1139
640.94763	1192
641.45966	1176
641.97162	1131
642.48358	1197
642.99554	1213
643.50751	1120
644.01941	1195
644.53131	1103
645.04315	1173
645.55499	1189
646.06683	1205
646.57861	1121
647.09045	1091
647.60217	1093
648.11395	1169
648.62567	1131
649.13733	1144
649.64905	1135
650.16064	1126
650.6723	1134
651.1839	1159
651.6955	1089
652.20709	1140
652.71863	1137
653.23016	1092
653.74164	1082
654.25311	1067
654.76459	1170
655.276	1122
655.78741	1069
656.29883	1076
656.81018	1076
657.32153	1102
657.83289	1084
658.34418	1137
658.85547	1093
659.3667	1055
659.87793	1055
660.38916	1022
660.90033	1055
661.4115	1055
661.92267	1022
662.43378	1046
662.94489	1013
663.45593	1010
663.96698	1034
664.47803	1041
664.98907	1107
665.50006	1011
666.01099	999
666.52191	1020
667.03284	1027
667.54376	1040
668.05463	1029
668.56549	984
669.07629	1012
669.5871	1001
670.0979	991
670.60864	1009
671.11938	923
671.63007	993
672.14075	999
672.65143	946
673.16205	923
673.67267	946
674.18329	979
674.69385	937
675.20435	997
675.7149	933
676.2254	939
676.73584	928
677.24628	933
677.75671	965
678.26715	899
678.77753	948
679.28784	917
679.79822	953
680.30847	946
680.81879	923
681.32904	942
681.83923	978
682.34949	913
682.85968	935
683.36981	959
683.87994	875
684.39008	833
684.90015	914
685.41022	878
685.92023	885
686.43024	880
686.94025	883
687.4502	856
687.96014	838
688.47003	868
688.97992	840
689.48981	844
689.99963	835
690.50946	851
691.01923	863
691.52899	889
692.03876	875
692.54846	790
693.05817	848
693.56781	786
694.07745	827
694.58704	849
695.09662	755
695.6062	770
696.11572	804
696.62524	776
697.1347	805
697.64417	787
698.15363	798
698.66302	797
699.17242	766
699.68176	771
700.1911	796
700.70044	736
701.20972	783
701.71893	782
702.22815	821
702.73737	748
703.24652	794
703.75568	735
704.26483	764
704.77393	723
705.28302	683
705.79205	745
706.30103	729
706.81006	707
707.31903	757
707.82794	749
708.33685	723
708.84576	715
709.35461	749
709.86346	743
710.37225	685
710.88104	709
711.38977	723
711.8985	706
712.40723	727
712.91589	705
713.42456	688
713.93317	689
714.44177	705
714.95032	708
715.45886	677
715.96735	669
716.47583	651
716.98431	670
717.49274	651
718.00116	667
718.50952	650
719.01788	679
719.52618	645
720.03448	656
720.54272	662
721.05096	651
721.5592	654
722.06738	634
722.57556	648
723.08368	643
723.59174	604
724.09985	651
724.60791	663
725.11591	627
725.6239	621
726.13184	640
726.63977	645
727.14771	647
727.65558	625
728.16339	619
728.67126	630
729.17902	623
729.68683	644
730.19452	624
730.70227	605
731.2099	614
731.71759	637
732.22522	588
732.73279	631
733.24036	597
733.74792	578
734.25543	604
734.76288	612
735.27032	599
735.77777	596
736.28516	593
736.79254	555
737.29987	614
737.80719	629
738.31445	580
738.82172	561
739.32892	616
739.83612	579
740.34326	549
740.8504	592
741.35748	583
741.86456	563
742.37164	572
742.87866	556
743.38562	572
743.89258	587
744.39954	517
744.90643	555
745.41327	549
745.9201	556
746.42694	574
746.93372	535
747.44049	579
747.9472	507
748.45386	596
748.96057	528
749.46716	562
749.97375	505
750.48035	516
750.98688	542
751.49341	525
751.99988	561
752.50635	524
753.01276	505
753.51917	503
754.02551	482
754.53186	493
755.03815	497
755.54443	516
756.05066	478
756.55688	492
757.06305	551
757.56921	508
758.07532	514
758.58142	507
759.08746	521
759.59351	514
760.09949	487
760.60547	485
761.11139	469
761.61725	481
762.12317	497
762.62897	484
763.13483	480
763.64056	481
764.1463	496
764.65204	488
765.15771	460
765.66339	479
766.16901	454
766.67462	477
767.18018	471
767.68567	451
768.19116	474
768.69666	462
769.20209	479
769.70746	463
770.21283	438
770.7182	474
771.22351	452
771.72876	438
772.23401	443
772.73926	456
773.24445	458
773.74957	443
774.2547	442
774.75977	460
775.26483	451
775.76984	427
776.27484	430
776.77979	436
777.28473	438
777.78961	441
778.29449	433
778.79932	428
779.30408	421
779.80884	443
780.3136	416
780.8183	457
781.32294	421
781.82758	459
782.33215	439
782.83673	414
783.34131	417
783.84576	442
784.35028	374
784.85468	424
785.35907	436
785.86346	430
786.3678	445
786.87213	433
787.3764	410
787.88062	382
788.38483	418
788.88898	396
789.39313	397
789.89722	406
790.40131	446
790.90533	396
791.40936	401
791.91333	394
792.4173	396
792.9212	382
793.42505	376
793.92889	426
794.43268	401
794.93646	398
795.44019	408
795.94391	408
796.44757	396
796.95123	401
797.45483	374
797.95837	376
798.46191	392
798.96539	416
799.46887	397
799.97235	376
800.47571	384
800.97906	408
801.48242	383
801.98572	389
802.48895	395
802.99219	384
803.49536	386
803.99854	367
804.50165	354
805.00476	398
805.50781	417
806.01086	383
806.51379	412
807.01678	385
807.51971	355
808.02258	362
808.52539	351
809.02826	383
809.53101	381
810.03375	383
810.53644	370
811.03912	402
811.54175	379
812.04437	407
812.54694	371
813.04944	356
813.55194	376
814.05444	407
814.55682	360
815.05927	374
815.56158	385
816.0639	354
816.56622	382
817.06842	378
817.57068	396
818.07281	367
818.57495	393
819.07709	370
819.57916	395
820.08118	353
820.58319	358
821.08514	399
821.5871	367
822.08899	393
822.59082	384
823.09265	370
823.59442	348
824.09619	393
824.5979	342
825.09955	365
825.6012	357
826.10278	378
826.60437	355
827.1059	367
827.60736	349
828.10883	339
828.61023	360
829.11163	359
829.61298	382
830.11432	379
830.61554	362
831.11682	378
831.61798	360
832.11914	360
832.6203	385
833.1214	381
833.62244	357
834.12347	366
834.62445	372
835.12537	348
835.62628	361
836.12714	361
836.62799	360
837.12878	381
837.62952	346
838.13025	365
838.63092	383
839.13153	361
839.63214	376
840.13275	367
840.63324	373
841.13373	387
841.63422	364
842.13464	371
842.63501	364
843.13538	353
843.63568	351
844.13593	365
844.63617	373
845.13635	402
845.63647	362
846.1366	368
846.63672	346
847.13672	331
847.63672	370
848.13672	373
848.6366	366
849.13647	365
849.63635	377
850.13617	364
850.63593	346
851.13568	352
851.63538	338
852.13501	358
852.63464	367
853.13422	363
853.63373	370
854.13324	385
854.63275	361
855.13214	343
855.63153	366
856.13086	354
856.63019	356
857.12946	367
857.62866	366
858.12787	394
858.62701	374
859.12616	349
859.62524	362
860.12427	375
860.62323	335
861.12219	357
861.62109	372
862.12	350
862.61884	367
863.11761	352
863.61639	347
864.11511	352
864.61377	367
865.11243	353
865.61102	338
866.10962	342
866.60809	341
867.10663	368
867.60504	358
868.10345	371
868.60181	353
869.10016	358
869.59839	369
870.09668	429
870.59485	481
871.09302	572
871.59113	705
872.08923	799
872.58728	755
873.08527	876
873.58325	846
874.08118	949
874.57904	898
875.0769	954
875.57465	926
876.07245	943
876.57013	953
877.06781	894
877.56549	967
878.06305	981
878.56061	975
879.05817	976
879.5556	890
880.05304	910
880.55042	958
881.04779	937
881.5451	939
882.04236	1039
882.53961	964
883.0368	963
883.53394	1018
884.03107	947
884.52808	973
885.02515	933
