Date and Time:                Fri Oct 17 08:14:47.695 2025
Software Version:             4.30.30000.0
Temperature (C):              -90
Model:                        DU971P_UVB
Data Type:                    Counts
Acquisition Mode:             Single Scan
Trigger Mode:                 Internal
Exposure Time (secs):         30
Readout Mode:                 Full Vertical Binning
Horizontal binning:           2
Extended Dynamic Range:       off
Horizontally flipped:         false
Vertical Shift Speed (usecs): 9.68
Pixel Readout Rate (MHz):     3
Baseline Clamp:               ON
Clock Amplitude:              Normal
Output Amplifier:             Conventional
Serial Number:                20367
Pre-Amplifier Gain:           4x
Spurious Noise Filter Mode:   No Filter
Photon counted:               false
Data Averaging Filter Mode:   No Filter
SR193i:
Serial Number:                SR-2646
Wavelength (nm):              690
Grating Groove Density (l/mm):300
Grating Blaze:                500nm
Input Side Slit Width (um):   1000



478.32681	291
478.84332	335
479.35983	310
479.87631	354
480.39282	303
480.9093	325
481.42575	341
481.94223	344
482.45868	348
482.97513	338
483.49158	321
484.00803	342
484.52444	334
485.04086	336
485.55728	335
486.07367	337
486.59006	329
487.10645	325
487.62283	345
488.13919	337
488.65555	346
489.17191	334
489.68826	350
490.20459	338
490.72092	356
491.23724	366
491.75354	327
492.26984	351
492.78613	348
493.30243	360
493.8187	360
494.33496	346
494.85123	356
495.36746	347
495.8837	328
496.39993	354
496.91617	360
497.43237	340
497.94858	368
498.46478	339
498.98096	344
499.49713	344
500.01331	343
500.52945	374
501.04562	342
501.56174	370
502.07788	349
502.59399	343
503.11011	359
503.62622	359
504.1423	340
504.65839	367
505.17447	359
505.69052	359
506.20657	356
506.72263	326
507.23865	348
507.75467	322
508.27069	374
508.78668	368
509.30267	357
509.81866	366
510.33463	329
510.85059	345
511.36655	355
511.88248	359
512.39844	334
512.91437	335
513.43024	359
513.94617	348
514.46204	364
514.97791	386
515.49377	397
516.00964	338
516.52551	340
517.04132	369
517.55719	352
518.073	337
518.58881	337
519.10461	353
519.62036	340
520.13617	344
520.65192	365
521.16766	330
521.68341	324
522.1991	333
522.71484	350
523.23053	367
523.74622	348
524.2619	341
524.77759	347
525.29327	338
525.8089	311
526.32452	359
526.84015	333
527.35577	374
527.8714	320
528.38696	321
528.90259	358
529.41815	340
529.93372	364
530.44922	345
530.96478	349
531.48029	336
531.99579	351
532.51129	336
533.02679	326
533.5423	327
534.05774	348
534.57318	338
535.08862	316
535.60406	364
536.11945	331
536.63489	358
537.15027	340
537.66565	355
538.18097	329
538.69635	347
539.21167	359
539.72699	344
540.24231	335
540.75763	345
541.27289	335
541.78821	339
542.30347	341
542.81873	372
543.33392	351
543.84918	339
544.36438	339
544.87958	350
545.39478	339
545.90991	363
546.42511	369
546.94025	354
547.45538	339
547.97052	340
548.4856	336
549.00073	316
549.51581	355
550.03088	337
550.5459	359
551.06097	340
551.57599	340
552.091	315
552.60602	332
553.12097	335
553.63593	351
554.15094	341
554.66583	347
555.18079	357
555.69568	357
556.21063	344
556.72552	333
557.24036	361
557.75525	336
558.27008	337
558.78491	344
559.29974	335
559.81458	338
560.32935	367
560.84412	314
561.35889	350
561.87366	334
562.38837	339
562.90308	334
563.41779	355
563.9325	327
564.44714	310
564.96179	332
565.47644	336
565.99109	342
566.50574	350
567.02032	327
567.53491	318
568.0495	336
568.56403	328
569.07861	350
569.59314	306
570.1076	314
570.62213	350
571.1366	320
571.65106	343
572.16553	355
572.67999	327
573.1944	342
573.7088	321
574.22321	329
574.73755	350
575.25195	337
575.7663	318
576.28058	318
576.79492	337
577.3092	333
577.82349	328
578.33777	350
578.85205	323
579.36627	343
579.88049	341
580.39471	328
580.90887	327
581.42303	319
581.93719	339
582.45135	317
582.96545	321
583.47955	335
583.99365	358
584.50775	342
585.02179	338
585.53583	341
586.04987	321
586.5639	346
587.07788	325
587.59186	330
588.10583	320
588.61975	323
589.13373	321
589.64758	341
590.1615	326
590.67542	346
591.18927	323
591.70306	349
592.21692	335
592.73071	317
593.24451	326
593.7583	323
594.27209	338
594.78583	318
595.29956	309
595.81323	339
596.32697	332
596.84064	343
597.35425	322
597.86792	336
598.38153	327
598.89514	321
599.40875	341
599.9223	331
600.43585	332
600.9494	320
601.46289	300
601.97638	314
602.48987	323
603.00336	327
603.51678	328
604.03021	335
604.54364	306
605.05701	323
605.57043	343
606.08374	345
606.59711	309
607.11041	320
607.62372	325
608.13702	332
608.65027	332
609.16351	318
609.67676	291
610.19	322
610.70319	325
611.21637	325
611.72949	325
612.24268	328
612.75574	326
613.26886	321
613.78192	341
614.29504	319
614.80804	327
615.32111	335
615.83411	321
616.34711	354
616.86005	335
617.37299	311
617.88593	348
618.39886	338
618.91174	314
619.42462	329
619.9375	334
620.45032	313
620.96313	342
621.47595	332
621.98871	314
622.50146	327
623.01422	324
623.52692	326
624.03967	330
624.55231	498
625.065	3741
625.57764	294
626.09027	319
626.60284	293
627.11542	320
627.62799	339
628.14056	330
628.65308	308
629.16559	330
629.6781	316
630.19055	333
630.703	335
631.21539	320
631.72784	328
632.24017	309
632.75256	326
633.26489	311
633.77722	355
634.28955	343
634.80182	304
635.31409	315
635.82635	325
636.33856	333
636.85077	336
637.36292	319
637.87512	332
638.38721	324
638.89935	320
639.41144	309
639.92352	337
640.43561	314
640.94763	308
641.45966	305
641.97162	321
642.48358	333
642.99554	319
643.50751	331
644.01941	326
644.53131	338
645.04315	341
645.55499	339
646.06683	339
646.57861	332
647.09045	344
647.60217	322
648.11395	299
648.62567	324
649.13733	331
649.64905	324
650.16064	311
650.6723	322
651.1839	335
651.6955	316
652.20709	311
652.71863	305
653.23016	291
653.74164	313
654.25311	319
654.76459	338
655.276	331
655.78741	359
656.29883	317
656.81018	320
657.32153	321
657.83289	329
658.34418	313
658.85547	366
659.3667	329
659.87793	344
660.38916	293
660.90033	346
661.4115	308
661.92267	345
662.43378	323
662.94489	339
663.45593	328
663.96698	351
664.47803	313
664.98907	321
665.50006	355
666.01099	330
666.52191	319
667.03284	319
667.54376	350
668.05463	314
668.56549	329
669.07629	329
669.5871	337
670.0979	321
670.60864	321
671.11938	309
671.63007	331
672.14075	333
672.65143	326
673.16205	308
673.67267	351
674.18329	310
674.69385	351
675.20435	310
675.7149	323
676.2254	320
676.73584	306
677.24628	308
677.75671	323
678.26715	315
678.77753	349
679.28784	340
679.79822	328
680.30847	336
680.81879	330
681.32904	334
681.83923	324
682.34949	309
682.85968	328
683.36981	330
683.87994	334
684.39008	333
684.90015	319
685.41022	313
685.92023	326
686.43024	344
686.94025	323
687.4502	322
687.96014	327
688.47003	301
688.97992	332
689.48981	332
689.99963	320
690.50946	318
691.01923	301
691.52899	335
692.03876	325
692.54846	325
693.05817	315
693.56781	315
694.07745	328
694.58704	328
695.09662	304
695.6062	309
696.11572	309
696.62524	313
697.1347	311
697.64417	327
698.15363	319
698.66302	317
699.17242	325
699.68176	303
700.1911	316
700.70044	320
701.20972	315
701.71893	319
702.22815	319
702.73737	321
703.24652	336
703.75568	329
704.26483	315
704.77393	351
705.28302	327
705.79205	331
706.30103	309
706.81006	327
707.31903	316
707.82794	309
708.33685	325
708.84576	304
709.35461	324
709.86346	322
710.37225	319
710.88104	328
711.38977	312
711.8985	306
712.40723	327
712.91589	313
713.42456	309
713.93317	324
714.44177	310
714.95032	309
715.45886	325
715.96735	323
716.47583	309
716.98431	310
717.49274	302
718.00116	326
718.50952	335
719.01788	323
719.52618	328
720.03448	310
720.54272	336
721.05096	323
721.5592	304
722.06738	328
722.57556	307
723.08368	345
723.59174	332
724.09985	310
724.60791	309
725.11591	322
725.6239	307
726.13184	317
726.63977	338
727.14771	309
727.65558	309
728.16339	311
728.67126	337
729.17902	310
729.68683	336
730.19452	317
730.70227	316
731.2099	330
731.71759	312
732.22522	338
732.73279	320
733.24036	298
733.74792	321
734.25543	315
734.76288	324
735.27032	327
735.77777	323
736.28516	318
736.79254	306
737.29987	317
737.80719	310
738.31445	307
738.82172	326
739.32892	324
739.83612	338
740.34326	331
740.8504	307
741.35748	328
741.86456	312
742.37164	317
742.87866	326
743.38562	311
743.89258	321
744.39954	320
744.90643	328
745.41327	325
745.9201	319
746.42694	299
746.93372	303
747.44049	315
747.9472	320
748.45386	340
748.96057	318
749.46716	309
749.97375	335
750.48035	321
750.98688	322
751.49341	316
751.99988	338
752.50635	333
753.01276	322
753.51917	316
754.02551	326
754.53186	312
755.03815	310
755.54443	310
756.05066	317
756.55688	316
757.06305	310
757.56921	321
758.07532	321
758.58142	293
759.08746	292
759.59351	312
760.09949	339
760.60547	331
761.11139	301
761.61725	317
762.12317	316
762.62897	326
763.13483	327
763.64056	326
764.1463	297
764.65204	335
765.15771	326
765.66339	303
766.16901	317
766.67462	309
767.18018	321
767.68567	319
768.19116	312
768.69666	330
769.20209	339
769.70746	302
770.21283	319
770.7182	297
771.22351	318
771.72876	326
772.23401	326
772.73926	333
773.24445	334
773.74957	304
774.2547	313
774.75977	319
775.26483	328
775.76984	327
776.27484	315
776.77979	310
777.28473	323
777.78961	306
778.29449	329
778.79932	311
779.30408	318
779.80884	336
780.3136	308
780.8183	328
781.32294	319
781.82758	322
782.33215	311
782.83673	340
783.34131	313
783.84576	314
784.35028	334
784.85468	317
785.35907	314
785.86346	309
786.3678	330
786.87213	310
787.3764	322
787.88062	303
788.38483	336
788.88898	330
789.39313	305
789.89722	314
790.40131	316
790.90533	305
791.40936	315
791.91333	318
792.4173	326
792.9212	304
793.42505	325
793.92889	346
794.43268	336
794.93646	332
795.44019	323
795.94391	315
796.44757	314
796.95123	313
797.45483	311
797.95837	320
798.46191	314
798.96539	347
799.46887	339
799.97235	295
800.47571	293
800.97906	314
801.48242	338
801.98572	298
802.48895	328
802.99219	336
803.49536	334
803.99854	314
804.50165	311
805.00476	323
805.50781	313
806.01086	319
806.51379	309
807.01678	307
807.51971	322
808.02258	332
808.52539	317
809.02826	315
809.53101	327
810.03375	307
810.53644	324
811.03912	322
811.54175	324
812.04437	333
812.54694	315
813.04944	330
813.55194	312
814.05444	306
814.55682	313
815.05927	321
815.56158	324
816.0639	307
816.56622	341
817.06842	309
817.57068	337
818.07281	321
818.57495	317
819.07709	316
819.57916	343
820.08118	345
820.58319	300
821.08514	330
821.5871	324
822.08899	323
822.59082	330
823.09265	332
823.59442	332
824.09619	309
824.5979	311
825.09955	298
825.6012	313
826.10278	301
826.60437	311
827.1059	316
827.60736	311
828.10883	314
828.61023	308
829.11163	298
829.61298	314
830.11432	337
830.61554	321
831.11682	314
831.61798	338
832.11914	331
832.6203	320
833.1214	324
833.62244	310
834.12347	323
834.62445	334
835.12537	320
835.62628	296
836.12714	343
836.62799	309
837.12878	322
837.62952	322
838.13025	308
838.63092	318
839.13153	327
839.63214	325
840.13275	307
840.63324	324
841.13373	314
841.63422	317
842.13464	321
842.63501	313
843.13538	315
843.63568	319
844.13593	307
844.63617	319
845.13635	310
845.63647	317
846.1366	306
846.63672	350
847.13672	323
847.63672	304
848.13672	298
848.6366	308
849.13647	327
849.63635	336
850.13617	316
850.63593	322
851.13568	324
851.63538	336
852.13501	315
852.63464	313
853.13422	313
853.63373	336
854.13324	310
854.63275	319
855.13214	308
855.63153	321
856.13086	327
856.63019	336
857.12946	350
857.62866	314
858.12787	307
858.62701	337
859.12616	306
859.62524	330
860.12427	312
860.62323	322
861.12219	312
861.62109	313
862.12	332
862.61884	314
863.11761	339
863.61639	311
864.11511	333
864.61377	314
865.11243	323
865.61102	335
866.10962	298
866.60809	328
867.10663	324
867.60504	323
868.10345	323
868.60181	295
869.10016	301
869.59839	334
870.09668	352
870.59485	370
871.09302	373
871.59113	402
872.08923	421
872.58728	446
873.08527	436
873.58325	448
874.08118	430
874.57904	440
875.0769	447
875.57465	442
876.07245	468
876.57013	463
877.06781	452
877.56549	462
878.06305	449
878.56061	490
879.05817	471
879.5556	429
880.05304	462
880.55042	497
881.04779	474
881.5451	465
882.04236	444
882.53961	474
883.0368	449
883.53394	469
884.03107	479
884.52808	479
885.02515	458
