Date and Time:                Sat Oct 18 09:47:49.657 2025
Software Version:             4.30.30000.0
Temperature (C):              -90
Model:                        DU971P_UVB
Data Type:                    Counts
Acquisition Mode:             Single Scan
Trigger Mode:                 Internal
Exposure Time (secs):         30
Readout Mode:                 Full Vertical Binning
Horizontal binning:           2
Extended Dynamic Range:       off
Horizontally flipped:         false
Vertical Shift Speed (usecs): 9.68
Pixel Readout Rate (MHz):     3
Baseline Clamp:               ON
Clock Amplitude:              Normal
Output Amplifier:             Conventional
Serial Number:                20367
Pre-Amplifier Gain:           4x
Spurious Noise Filter Mode:   No Filter
Photon counted:               false
Data Averaging Filter Mode:   No Filter
SR193i:
Serial Number:                SR-2646
Wavelength (nm):              690
Grating Groove Density (l/mm):300
Grating Blaze:                500nm
Input Side Slit Width (um):   1000



478.32681	352
478.84332	344
479.35983	351
479.87631	365
480.39282	362
480.9093	356
481.42575	352
481.94223	360
482.45868	370
482.97513	354
483.49158	364
484.00803	392
484.52444	405
485.04086	409
485.55728	382
486.07367	406
486.59006	414
487.10645	405
487.62283	400
488.13919	421
488.65555	456
489.17191	430
489.68826	454
490.20459	454
490.72092	431
491.23724	446
491.75354	443
492.26984	452
492.78613	465
493.30243	441
493.8187	470
494.33496	489
494.85123	479
495.36746	469
495.8837	514
496.39993	569
496.91617	539
497.43237	547
497.94858	532
498.46478	533
498.98096	560
499.49713	570
500.01331	581
500.52945	510
501.04562	560
501.56174	544
502.07788	529
502.59399	526
503.11011	562
503.62622	543
504.1423	542
504.65839	548
505.17447	565
505.69052	561
506.20657	531
506.72263	549
507.23865	552
507.75467	540
508.27069	568
508.78668	550
509.30267	507
509.81866	550
510.33463	518
510.85059	535
511.36655	541
511.88248	530
512.39844	543
512.91437	522
513.43024	541
513.94617	508
514.46204	550
514.97791	534
515.49377	558
516.00964	573
516.52551	561
517.04132	537
517.55719	558
518.073	551
518.58881	585
519.10461	566
519.62036	514
520.13617	540
520.65192	523
521.16766	521
521.68341	507
522.1991	567
522.71484	502
523.23053	524
523.74622	495
524.2619	496
524.77759	532
525.29327	542
525.8089	511
526.32452	546
526.84015	531
527.35577	549
527.8714	515
528.38696	526
528.90259	557
529.41815	523
529.93372	515
530.44922	525
530.96478	520
531.48029	521
531.99579	1250
532.51129	624
533.02679	503
533.5423	496
534.05774	534
534.57318	502
535.08862	491
535.60406	494
536.11945	504
536.63489	510
537.15027	511
537.66565	496
538.18097	496
538.69635	547
539.21167	518
539.72699	539
540.24231	483
540.75763	495
541.27289	505
541.78821	542
542.30347	493
542.81873	498
543.33392	499
543.84918	490
544.36438	498
544.87958	514
545.39478	514
545.90991	528
546.42511	477
546.94025	501
547.45538	513
547.97052	537
548.4856	518
549.00073	500
549.51581	517
550.03088	497
550.5459	514
551.06097	513
551.57599	504
552.091	535
552.60602	534
553.12097	469
553.63593	526
554.15094	543
554.66583	556
555.18079	567
555.69568	542
556.21063	534
556.72552	507
557.24036	548
557.75525	542
558.27008	549
558.78491	535
559.29974	558
559.81458	577
560.32935	548
560.84412	570
561.35889	541
561.87366	587
562.38837	558
562.90308	545
563.41779	584
563.9325	559
564.44714	636
564.96179	610
565.47644	598
565.99109	590
566.50574	620
567.02032	585
567.53491	641
568.0495	658
568.56403	671
569.07861	648
569.59314	637
570.1076	647
570.62213	656
571.1366	647
571.65106	675
572.16553	661
572.67999	671
573.1944	667
573.7088	672
574.22321	670
574.73755	680
575.25195	678
575.7663	718
576.28058	677
576.79492	678
577.3092	708
577.82349	737
578.33777	703
578.85205	721
579.36627	741
579.88049	733
580.39471	737
580.90887	799
581.42303	796
581.93719	742
582.45135	733
582.96545	748
583.47955	773
583.99365	826
584.50775	792
585.02179	815
585.53583	795
586.04987	838
586.5639	869
587.07788	813
587.59186	818
588.10583	842
588.61975	821
589.13373	872
589.64758	813
590.1615	830
590.67542	881
591.18927	855
591.70306	849
592.21692	890
592.73071	867
593.24451	881
593.7583	911
594.27209	871
594.78583	911
595.29956	899
595.81323	853
596.32697	919
596.84064	874
597.35425	934
597.86792	892
598.38153	849
598.89514	901
599.40875	919
599.9223	898
600.43585	973
600.9494	902
601.46289	858
601.97638	961
602.48987	978
603.00336	909
603.51678	896
604.03021	933
604.54364	920
605.05701	930
605.57043	931
606.08374	924
606.59711	923
607.11041	904
607.62372	921
608.13702	943
608.65027	923
609.16351	950
609.67676	928
610.19	915
610.70319	887
611.21637	932
611.72949	888
612.24268	968
612.75574	939
613.26886	921
613.78192	902
614.29504	921
614.80804	982
615.32111	907
615.83411	937
616.34711	917
616.86005	876
617.37299	947
617.88593	872
618.39886	930
618.91174	915
619.42462	871
619.9375	905
620.45032	885
620.96313	873
621.47595	893
621.98871	861
622.50146	910
623.01422	852
623.52692	882
624.03967	809
624.55231	906
625.065	873
625.57764	934
626.09027	833
626.60284	885
627.11542	820
627.62799	861
628.14056	830
628.65308	877
629.16559	855
629.6781	826
630.19055	855
630.703	827
631.21539	801
631.72784	853
632.24017	849
632.75256	777
633.26489	807
633.77722	771
634.28955	803
634.80182	790
635.31409	795
635.82635	833
636.33856	800
636.85077	809
637.36292	750
637.87512	755
638.38721	796
638.89935	766
639.41144	744
639.92352	765
640.43561	826
640.94763	717
641.45966	850
641.97162	749
642.48358	737
642.99554	762
643.50751	748
644.01941	727
644.53131	746
645.04315	764
645.55499	762
646.06683	716
646.57861	756
647.09045	738
647.60217	746
648.11395	694
648.62567	695
649.13733	704
649.64905	690
650.16064	695
650.6723	757
651.1839	647
651.6955	679
652.20709	662
652.71863	716
653.23016	659
653.74164	745
654.25311	668
654.76459	676
655.276	651
655.78741	675
656.29883	711
656.81018	694
657.32153	671
657.83289	646
658.34418	631
658.85547	710
659.3667	668
659.87793	618
660.38916	665
660.90033	635
661.4115	651
661.92267	582
662.43378	628
662.94489	638
663.45593	628
663.96698	640
664.47803	679
664.98907	623
665.50006	628
666.01099	616
666.52191	569
667.03284	605
667.54376	591
668.05463	602
668.56549	599
669.07629	609
669.5871	592
670.0979	582
670.60864	606
671.11938	597
671.63007	544
672.14075	559
672.65143	596
673.16205	577
673.67267	585
674.18329	576
674.69385	561
675.20435	563
675.7149	541
676.2254	585
676.73584	540
677.24628	564
677.75671	549
678.26715	537
678.77753	553
679.28784	548
679.79822	529
680.30847	565
680.81879	539
681.32904	528
681.83923	513
682.34949	526
682.85968	529
683.36981	523
683.87994	504
684.39008	571
684.90015	2447
685.41022	531
685.92023	509
686.43024	569
686.94025	497
687.4502	532
687.96014	527
688.47003	515
688.97992	484
689.48981	478
689.99963	553
690.50946	504
691.01923	480
691.52899	489
692.03876	475
692.54846	487
693.05817	472
693.56781	491
694.07745	486
694.58704	493
695.09662	495
695.6062	468
696.11572	483
696.62524	434
697.1347	448
697.64417	480
698.15363	493
698.66302	461
699.17242	478
699.68176	451
700.1911	452
700.70044	430
701.20972	473
701.71893	430
702.22815	431
702.73737	416
703.24652	446
703.75568	449
704.26483	457
704.77393	449
705.28302	459
705.79205	430
706.30103	447
706.81006	438
707.31903	406
707.82794	422
708.33685	444
708.84576	415
709.35461	426
709.86346	456
710.37225	437
710.88104	452
711.38977	424
711.8985	413
712.40723	411
712.91589	434
713.42456	405
713.93317	405
714.44177	425
714.95032	413
715.45886	419
715.96735	443
716.47583	415
716.98431	394
717.49274	417
718.00116	429
718.50952	3136
719.01788	394
719.52618	409
720.03448	405
720.54272	416
721.05096	414
721.5592	410
722.06738	413
722.57556	386
723.08368	388
723.59174	407
724.09985	389
724.60791	404
725.11591	398
725.6239	389
726.13184	414
726.63977	391
727.14771	406
727.65558	417
728.16339	374
728.67126	379
729.17902	368
729.68683	386
730.19452	385
730.70227	389
731.2099	404
731.71759	382
732.22522	402
732.73279	425
733.24036	386
733.74792	372
734.25543	420
734.76288	377
735.27032	403
735.77777	374
736.28516	382
736.79254	374
737.29987	387
737.80719	369
738.31445	366
738.82172	352
739.32892	403
739.83612	394
740.34326	373
740.8504	380
741.35748	367
741.86456	365
742.37164	394
742.87866	379
743.38562	384
743.89258	386
744.39954	377
744.90643	383
745.41327	378
745.9201	369
746.42694	368
746.93372	350
747.44049	381
747.9472	374
748.45386	368
748.96057	372
749.46716	388
749.97375	362
750.48035	356
750.98688	376
751.49341	375
751.99988	356
752.50635	340
753.01276	378
753.51917	364
754.02551	339
754.53186	379
755.03815	359
755.54443	372
756.05066	360
756.55688	352
757.06305	373
757.56921	355
758.07532	348
758.58142	362
759.08746	371
759.59351	364
760.09949	371
760.60547	347
761.11139	375
761.61725	349
762.12317	366
762.62897	353
763.13483	363
763.64056	359
764.1463	336
764.65204	329
765.15771	374
765.66339	341
766.16901	353
766.67462	354
767.18018	347
767.68567	339
768.19116	348
768.69666	352
769.20209	330
769.70746	354
770.21283	351
770.7182	358
771.22351	332
771.72876	332
772.23401	342
772.73926	366
773.24445	333
773.74957	358
774.2547	352
774.75977	344
775.26483	334
775.76984	353
776.27484	354
776.77979	336
777.28473	338
777.78961	343
778.29449	336
778.79932	344
779.30408	349
779.80884	360
780.3136	337
780.8183	327
781.32294	355
781.82758	347
782.33215	326
782.83673	322
783.34131	323
783.84576	352
784.35028	335
784.85468	360
785.35907	346
785.86346	335
786.3678	350
786.87213	326
787.3764	326
787.88062	344
788.38483	339
788.88898	336
789.39313	355
789.89722	345
790.40131	339
790.90533	307
791.40936	351
791.91333	336
792.4173	362
792.9212	343
793.42505	322
793.92889	344
794.43268	339
794.93646	315
795.44019	353
795.94391	324
796.44757	333
796.95123	325
797.45483	339
797.95837	337
798.46191	334
798.96539	336
799.46887	326
799.97235	336
800.47571	353
800.97906	328
801.48242	336
801.98572	331
802.48895	350
802.99219	333
803.49536	324
803.99854	346
804.50165	316
805.00476	334
805.50781	345
806.01086	292
806.51379	334
807.01678	339
807.51971	322
808.02258	337
808.52539	336
809.02826	303
809.53101	333
810.03375	348
810.53644	336
811.03912	313
811.54175	309
812.04437	317
812.54694	333
813.04944	353
813.55194	338
814.05444	319
814.55682	340
815.05927	342
815.56158	351
816.0639	329
816.56622	337
817.06842	319
817.57068	302
818.07281	342
818.57495	310
819.07709	317
819.57916	316
820.08118	333
820.58319	312
821.08514	331
821.5871	333
822.08899	313
822.59082	337
823.09265	319
823.59442	296
824.09619	336
824.5979	327
825.09955	329
825.6012	342
826.10278	321
826.60437	319
827.1059	312
827.60736	291
828.10883	348
828.61023	350
829.11163	340
829.61298	342
830.11432	337
830.61554	314
831.11682	331
831.61798	346
832.11914	311
832.6203	329
833.1214	333
833.62244	345
834.12347	335
834.62445	345
835.12537	307
835.62628	310
836.12714	339
836.62799	337
837.12878	303
837.62952	309
838.13025	329
838.63092	322
839.13153	338
839.63214	338
840.13275	324
840.63324	314
841.13373	334
841.63422	329
842.13464	318
842.63501	318
843.13538	316
843.63568	336
844.13593	342
844.63617	330
845.13635	333
845.63647	312
846.1366	332
846.63672	323
847.13672	341
847.63672	343
848.13672	335
848.6366	319
849.13647	331
849.63635	317
850.13617	327
850.63593	328
851.13568	342
851.63538	322
852.13501	322
852.63464	330
853.13422	357
853.63373	313
854.13324	330
854.63275	329
855.13214	339
855.63153	314
856.13086	325
856.63019	328
857.12946	314
857.62866	330
858.12787	351
858.62701	340
859.12616	353
859.62524	321
860.12427	328
860.62323	321
861.12219	337
861.62109	351
862.12	326
862.61884	323
863.11761	316
863.61639	329
864.11511	349
864.61377	312
865.11243	326
865.61102	312
866.10962	333
866.60809	349
867.10663	313
867.60504	338
868.10345	342
868.60181	341
869.10016	310
869.59839	335
870.09668	443
870.59485	441
871.09302	570
871.59113	643
872.08923	709
872.58728	789
873.08527	815
873.58325	777
874.08118	880
874.57904	857
875.0769	877
875.57465	857
876.07245	819
876.57013	844
877.06781	900
877.56549	832
878.06305	903
878.56061	890
879.05817	847
879.5556	918
880.05304	916
880.55042	854
881.04779	853
881.5451	932
882.04236	887
882.53961	889
883.0368	863
883.53394	901
884.03107	872
884.52808	933
885.02515	865
