Date and Time:                Sat Oct 18 09:49:11.836 2025
Software Version:             4.30.30000.0
Temperature (C):              -90
Model:                        DU971P_UVB
Data Type:                    Counts
Acquisition Mode:             Single Scan
Trigger Mode:                 Internal
Exposure Time (secs):         30
Readout Mode:                 Full Vertical Binning
Horizontal binning:           2
Extended Dynamic Range:       off
Horizontally flipped:         false
Vertical Shift Speed (usecs): 9.68
Pixel Readout Rate (MHz):     3
Baseline Clamp:               ON
Clock Amplitude:              Normal
Output Amplifier:             Conventional
Serial Number:                20367
Pre-Amplifier Gain:           4x
Spurious Noise Filter Mode:   No Filter
Photon counted:               false
Data Averaging Filter Mode:   No Filter
SR193i:
Serial Number:                SR-2646
Wavelength (nm):              690
Grating Groove Density (l/mm):300
Grating Blaze:                500nm
Input Side Slit Width (um):   1000



478.32681	332
478.84332	360
479.35983	360
479.87631	360
480.39282	373
480.9093	376
481.42575	355
481.94223	364
482.45868	368
482.97513	358
483.49158	385
484.00803	381
484.52444	362
485.04086	401
485.55728	433
486.07367	385
486.59006	397
487.10645	399
487.62283	419
488.13919	423
488.65555	422
489.17191	405
489.68826	451
490.20459	419
490.72092	470
491.23724	448
491.75354	453
492.26984	459
492.78613	463
493.30243	458
493.8187	474
494.33496	488
494.85123	478
495.36746	484
495.8837	501
496.39993	485
496.91617	546
497.43237	488
497.94858	526
498.46478	510
498.98096	544
499.49713	560
500.01331	558
500.52945	546
501.04562	572
501.56174	520
502.07788	551
502.59399	525
503.11011	502
503.62622	529
504.1423	545
504.65839	545
505.17447	526
505.69052	518
506.20657	494
506.72263	545
507.23865	565
507.75467	534
508.27069	530
508.78668	505
509.30267	493
509.81866	504
510.33463	554
510.85059	555
511.36655	547
511.88248	537
512.39844	543
512.91437	544
513.43024	515
513.94617	549
514.46204	539
514.97791	461
515.49377	525
516.00964	528
516.52551	522
517.04132	496
517.55719	522
518.073	541
518.58881	482
519.10461	500
519.62036	504
520.13617	517
520.65192	503
521.16766	532
521.68341	555
522.1991	542
522.71484	537
523.23053	534
523.74622	498
524.2619	506
524.77759	509
525.29327	530
525.8089	502
526.32452	519
526.84015	547
527.35577	530
527.8714	513
528.38696	520
528.90259	504
529.41815	477
529.93372	533
530.44922	503
530.96478	489
531.48029	466
531.99579	468
532.51129	519
533.02679	503
533.5423	501
534.05774	476
534.57318	492
535.08862	501
535.60406	538
536.11945	552
536.63489	556
537.15027	503
537.66565	514
538.18097	528
538.69635	475
539.21167	500
539.72699	488
540.24231	501
540.75763	508
541.27289	502
541.78821	504
542.30347	514
542.81873	481
543.33392	491
543.84918	510
544.36438	497
544.87958	500
545.39478	482
545.90991	498
546.42511	534
546.94025	489
547.45538	536
547.97052	475
548.4856	498
549.00073	509
549.51581	489
550.03088	518
550.5459	519
551.06097	480
551.57599	514
552.091	499
552.60602	538
553.12097	515
553.63593	512
554.15094	526
554.66583	526
555.18079	587
555.69568	525
556.21063	531
556.72552	548
557.24036	564
557.75525	514
558.27008	532
558.78491	511
559.29974	535
559.81458	554
560.32935	550
560.84412	547
561.35889	570
561.87366	575
562.38837	599
562.90308	565
563.41779	581
563.9325	577
564.44714	562
564.96179	561
565.47644	542
565.99109	585
566.50574	632
567.02032	616
567.53491	607
568.0495	601
568.56403	611
569.07861	583
569.59314	608
570.1076	597
570.62213	650
571.1366	641
571.65106	630
572.16553	694
572.67999	655
573.1944	719
573.7088	655
574.22321	647
574.73755	660
575.25195	689
575.7663	672
576.28058	700
576.79492	754
577.3092	703
577.82349	752
578.33777	736
578.85205	727
579.36627	692
579.88049	755
580.39471	761
580.90887	746
581.42303	802
581.93719	768
582.45135	762
582.96545	749
583.47955	745
583.99365	781
584.50775	753
585.02179	769
585.53583	790
586.04987	840
586.5639	798
587.07788	847
587.59186	811
588.10583	799
588.61975	876
589.13373	825
589.64758	833
590.1615	842
590.67542	871
591.18927	848
591.70306	893
592.21692	895
592.73071	848
593.24451	945
593.7583	859
594.27209	834
594.78583	937
595.29956	840
595.81323	916
596.32697	929
596.84064	859
597.35425	871
597.86792	904
598.38153	942
598.89514	953
599.40875	909
599.9223	888
600.43585	931
600.9494	961
601.46289	947
601.97638	940
602.48987	874
603.00336	881
603.51678	893
604.03021	923
604.54364	962
605.05701	886
605.57043	958
606.08374	964
606.59711	941
607.11041	938
607.62372	958
608.13702	998
608.65027	977
609.16351	909
609.67676	991
610.19	937
610.70319	953
611.21637	926
611.72949	924
612.24268	877
612.75574	961
613.26886	940
613.78192	896
614.29504	959
614.80804	973
615.32111	921
615.83411	940
616.34711	882
616.86005	925
617.37299	882
617.88593	891
618.39886	910
618.91174	862
619.42462	912
619.9375	920
620.45032	833
620.96313	917
621.47595	913
621.98871	893
622.50146	918
623.01422	877
623.52692	900
624.03967	895
624.55231	905
625.065	865
625.57764	832
626.09027	884
626.60284	888
627.11542	825
627.62799	874
628.14056	870
628.65308	843
629.16559	859
629.6781	853
630.19055	790
630.703	842
631.21539	862
631.72784	832
632.24017	804
632.75256	823
633.26489	796
633.77722	807
634.28955	807
634.80182	799
635.31409	765
635.82635	827
636.33856	799
636.85077	782
637.36292	782
637.87512	870
638.38721	781
638.89935	766
639.41144	747
639.92352	763
640.43561	808
640.94763	774
641.45966	729
641.97162	750
642.48358	723
642.99554	708
643.50751	701
644.01941	729
644.53131	729
645.04315	729
645.55499	752
646.06683	717
646.57861	719
647.09045	757
647.60217	711
648.11395	677
648.62567	686
649.13733	687
649.64905	725
650.16064	725
650.6723	701
651.1839	671
651.6955	677
652.20709	664
652.71863	661
653.23016	670
653.74164	648
654.25311	692
654.76459	655
655.276	681
655.78741	645
656.29883	705
656.81018	662
657.32153	674
657.83289	683
658.34418	664
658.85547	687
659.3667	617
659.87793	648
660.38916	609
660.90033	627
661.4115	613
661.92267	633
662.43378	661
662.94489	618
663.45593	617
663.96698	625
664.47803	607
664.98907	607
665.50006	591
666.01099	591
666.52191	616
667.03284	607
667.54376	641
668.05463	597
668.56549	620
669.07629	590
669.5871	603
670.0979	583
670.60864	623
671.11938	575
671.63007	610
672.14075	604
672.65143	600
673.16205	570
673.67267	575
674.18329	556
674.69385	578
675.20435	603
675.7149	557
676.2254	531
676.73584	533
677.24628	582
677.75671	593
678.26715	571
678.77753	560
679.28784	563
679.79822	525
680.30847	513
680.81879	531
681.32904	518
681.83923	514
682.34949	533
682.85968	508
683.36981	470
683.87994	536
684.39008	527
684.90015	518
685.41022	497
685.92023	532
686.43024	534
686.94025	514
687.4502	519
687.96014	529
688.47003	474
688.97992	481
689.48981	510
689.99963	477
690.50946	488
691.01923	520
691.52899	505
692.03876	494
692.54846	483
693.05817	483
693.56781	457
694.07745	482
694.58704	485
695.09662	456
695.6062	489
696.11572	448
696.62524	447
697.1347	484
697.64417	452
698.15363	478
698.66302	475
699.17242	446
699.68176	459
700.1911	468
700.70044	439
701.20972	471
701.71893	443
702.22815	454
702.73737	433
703.24652	441
703.75568	454
704.26483	442
704.77393	446
705.28302	444
705.79205	436
706.30103	452
706.81006	448
707.31903	420
707.82794	443
708.33685	458
708.84576	441
709.35461	440
709.86346	424
710.37225	428
710.88104	424
711.38977	454
711.8985	444
712.40723	422
712.91589	424
713.42456	412
713.93317	413
714.44177	412
714.95032	400
715.45886	409
715.96735	386
716.47583	417
716.98431	432
717.49274	394
718.00116	416
718.50952	406
719.01788	405
719.52618	418
720.03448	409
720.54272	393
721.05096	432
721.5592	410
722.06738	424
722.57556	414
723.08368	404
723.59174	388
724.09985	423
724.60791	406
725.11591	422
725.6239	383
726.13184	401
726.63977	423
727.14771	389
727.65558	406
728.16339	412
728.67126	409
729.17902	364
729.68683	382
730.19452	370
730.70227	391
731.2099	387
731.71759	399
732.22522	389
732.73279	393
733.24036	410
733.74792	381
734.25543	356
734.76288	391
735.27032	374
735.77777	381
736.28516	375
736.79254	367
737.29987	387
737.80719	387
738.31445	401
738.82172	369
739.32892	377
739.83612	392
740.34326	340
740.8504	358
741.35748	382
741.86456	402
742.37164	348
742.87866	369
743.38562	359
743.89258	366
744.39954	400
744.90643	357
745.41327	367
745.9201	377
746.42694	388
746.93372	340
747.44049	377
747.9472	344
748.45386	367
748.96057	355
749.46716	363
749.97375	353
750.48035	348
750.98688	363
751.49341	381
751.99988	376
752.50635	361
753.01276	369
753.51917	366
754.02551	370
754.53186	385
755.03815	361
755.54443	356
756.05066	374
756.55688	348
757.06305	391
757.56921	363
758.07532	331
758.58142	374
759.08746	367
759.59351	365
760.09949	380
760.60547	326
761.11139	349
761.61725	382
762.12317	354
762.62897	357
763.13483	381
763.64056	344
764.1463	353
764.65204	362
765.15771	349
765.66339	355
766.16901	348
766.67462	355
767.18018	357
767.68567	327
768.19116	353
768.69666	361
769.20209	374
769.70746	345
770.21283	321
770.7182	346
771.22351	335
771.72876	369
772.23401	353
772.73926	331
773.24445	369
773.74957	330
774.2547	337
774.75977	359
775.26483	360
775.76984	342
776.27484	340
776.77979	343
777.28473	339
777.78961	320
778.29449	327
778.79932	349
779.30408	347
779.80884	332
780.3136	334
780.8183	360
781.32294	328
781.82758	376
782.33215	346
782.83673	336
783.34131	340
783.84576	333
784.35028	319
784.85468	334
785.35907	344
785.86346	327
786.3678	335
786.87213	349
787.3764	341
787.88062	336
788.38483	356
788.88898	332
789.39313	343
789.89722	338
790.40131	335
790.90533	335
791.40936	355
791.91333	339
792.4173	338
792.9212	337
793.42505	354
793.92889	334
794.43268	355
794.93646	333
795.44019	335
795.94391	352
796.44757	356
796.95123	337
797.45483	324
797.95837	324
798.46191	327
798.96539	334
799.46887	324
799.97235	325
800.47571	347
800.97906	335
801.48242	345
801.98572	342
802.48895	338
802.99219	336
803.49536	320
803.99854	352
804.50165	316
805.00476	340
805.50781	324
806.01086	334
806.51379	337
807.01678	308
807.51971	320
808.02258	329
808.52539	340
809.02826	320
809.53101	343
810.03375	303
810.53644	343
811.03912	334
811.54175	324
812.04437	329
812.54694	329
813.04944	347
813.55194	333
814.05444	346
814.55682	328
815.05927	353
815.56158	333
816.0639	336
816.56622	327
817.06842	336
817.57068	330
818.07281	299
818.57495	303
819.07709	345
819.57916	330
820.08118	333
820.58319	330
821.08514	318
821.5871	328
822.08899	333
822.59082	341
823.09265	306
823.59442	323
824.09619	339
824.5979	314
825.09955	344
825.6012	369
826.10278	311
826.60437	305
827.1059	337
827.60736	323
828.10883	344
828.61023	346
829.11163	344
829.61298	338
830.11432	333
830.61554	332
831.11682	334
831.61798	315
832.11914	344
832.6203	303
833.1214	343
833.62244	334
834.12347	333
834.62445	347
835.12537	326
835.62628	332
836.12714	330
836.62799	340
837.12878	324
837.62952	322
838.13025	349
838.63092	312
839.13153	350
839.63214	334
840.13275	342
840.63324	336
841.13373	332
841.63422	341
842.13464	313
842.63501	357
843.13538	317
843.63568	333
844.13593	339
844.63617	329
845.13635	335
845.63647	337
846.1366	308
846.63672	354
847.13672	327
847.63672	337
848.13672	319
848.6366	334
849.13647	348
849.63635	339
850.13617	321
850.63593	327
851.13568	314
851.63538	325
852.13501	327
852.63464	327
853.13422	343
853.63373	332
854.13324	344
854.63275	317
855.13214	345
855.63153	319
856.13086	325
856.63019	342
857.12946	321
857.62866	317
858.12787	340
858.62701	338
859.12616	312
859.62524	337
860.12427	320
860.62323	325
861.12219	342
861.62109	313
862.12	352
862.61884	329
863.11761	324
863.61639	351
864.11511	339
864.61377	318
865.11243	324
865.61102	330
866.10962	328
866.60809	327
867.10663	330
867.60504	324
868.10345	331
868.60181	321
869.10016	322
869.59839	379
870.09668	417
870.59485	469
871.09302	600
871.59113	707
872.08923	786
872.58728	848
873.08527	828
873.58325	888
874.08118	889
874.57904	897
875.0769	951
875.57465	896
876.07245	888
876.57013	933
877.06781	905
877.56549	889
878.06305	916
878.56061	911
879.05817	993
879.5556	992
880.05304	940
880.55042	948
881.04779	911
881.5451	894
882.04236	922
882.53961	984
883.0368	952
883.53394	1005
884.03107	1061
884.52808	1024
885.02515	953
