Date and Time:                Fri Oct 17 08:06:49.375 2025
Software Version:             4.30.30000.0
Unstabilized Temperature (C): -87.035
Model:                        DU971P_UVB
Data Type:                    Counts
Acquisition Mode:             Single Scan
Trigger Mode:                 Internal
Exposure Time (secs):         30
Readout Mode:                 Full Vertical Binning
Horizontal binning:           2
Extended Dynamic Range:       off
Horizontally flipped:         false
Vertical Shift Speed (usecs): 9.68
Pixel Readout Rate (MHz):     3
Baseline Clamp:               ON
Clock Amplitude:              Normal
Output Amplifier:             Conventional
Serial Number:                20367
Pre-Amplifier Gain:           4x
Spurious Noise Filter Mode:   No Filter
Photon counted:               false
Data Averaging Filter Mode:   No Filter
SR193i:
Serial Number:                SR-2646
Wavelength (nm):              690
Grating Groove Density (l/mm):300
Grating Blaze:                500nm
Input Side Slit Width (um):   1000



478.32681	269
478.84332	312
479.35983	310
479.87631	305
480.39282	309
480.9093	329
481.42575	324
481.94223	316
482.45868	322
482.97513	310
483.49158	311
484.00803	346
484.52444	323
485.04086	325
485.55728	320
486.07367	341
486.59006	331
487.10645	321
487.62283	334
488.13919	323
488.65555	343
489.17191	298
489.68826	317
490.20459	321
490.72092	313
491.23724	314
491.75354	325
492.26984	315
492.78613	303
493.30243	313
493.8187	339
494.33496	334
494.85123	323
495.36746	322
495.8837	326
496.39993	327
496.91617	328
497.43237	319
497.94858	312
498.46478	299
498.98096	302
499.49713	324
500.01331	322
500.52945	324
501.04562	333
501.56174	306
502.07788	314
502.59399	324
503.11011	327
503.62622	332
504.1423	323
504.65839	331
505.17447	322
505.69052	326
506.20657	308
506.72263	326
507.23865	311
507.75467	310
508.27069	340
508.78668	324
509.30267	315
509.81866	303
510.33463	314
510.85059	335
511.36655	329
511.88248	308
512.39844	338
512.91437	316
513.43024	306
513.94617	342
514.46204	329
514.97791	319
515.49377	332
516.00964	314
516.52551	306
517.04132	321
517.55719	324
518.073	317
518.58881	321
519.10461	329
519.62036	318
520.13617	312
520.65192	321
521.16766	331
521.68341	324
522.1991	329
522.71484	303
523.23053	326
523.74622	309
524.2619	326
524.77759	319
525.29327	339
525.8089	303
526.32452	318
526.84015	317
527.35577	326
527.8714	325
528.38696	325
528.90259	327
529.41815	322
529.93372	323
530.44922	312
530.96478	303
531.48029	311
531.99579	301
532.51129	333
533.02679	319
533.5423	318
534.05774	310
534.57318	323
535.08862	329
535.60406	311
536.11945	301
536.63489	324
537.15027	326
537.66565	323
538.18097	333
538.69635	323
539.21167	334
539.72699	313
540.24231	326
540.75763	312
541.27289	319
541.78821	316
542.30347	329
542.81873	302
543.33392	313
543.84918	320
544.36438	323
544.87958	325
545.39478	310
545.90991	331
546.42511	315
546.94025	323
547.45538	321
547.97052	322
548.4856	312
549.00073	338
549.51581	328
550.03088	302
550.5459	308
551.06097	315
551.57599	325
552.091	320
552.60602	322
553.12097	330
553.63593	317
554.15094	318
554.66583	321
555.18079	308
555.69568	292
556.21063	317
556.72552	316
557.24036	314
557.75525	324
558.27008	331
558.78491	318
559.29974	318
559.81458	332
560.32935	344
560.84412	299
561.35889	331
561.87366	314
562.38837	298
562.90308	320
563.41779	324
563.9325	306
564.44714	312
564.96179	334
565.47644	305
565.99109	320
566.50574	307
567.02032	325
567.53491	315
568.0495	317
568.56403	322
569.07861	344
569.59314	291
570.1076	299
570.62213	328
571.1366	295
571.65106	315
572.16553	323
572.67999	315
573.1944	333
573.7088	336
574.22321	333
574.73755	314
575.25195	308
575.7663	310
576.28058	324
576.79492	311
577.3092	317
577.82349	304
578.33777	302
578.85205	310
579.36627	327
579.88049	302
580.39471	322
580.90887	312
581.42303	317
581.93719	303
582.45135	327
582.96545	310
583.47955	331
583.99365	318
584.50775	286
585.02179	307
585.53583	308
586.04987	318
586.5639	331
587.07788	312
587.59186	327
588.10583	304
588.61975	318
589.13373	326
589.64758	316
590.1615	335
590.67542	313
591.18927	319
591.70306	311
592.21692	301
592.73071	308
593.24451	337
593.7583	312
594.27209	314
594.78583	321
595.29956	322
595.81323	329
596.32697	325
596.84064	321
597.35425	308
597.86792	321
598.38153	325
598.89514	314
599.40875	319
599.9223	335
600.43585	321
600.9494	318
601.46289	292
601.97638	320
602.48987	310
603.00336	326
603.51678	325
604.03021	329
604.54364	329
605.05701	305
605.57043	340
606.08374	315
606.59711	315
607.11041	327
607.62372	296
608.13702	304
608.65027	318
609.16351	298
609.67676	315
610.19	315
610.70319	307
611.21637	315
611.72949	312
612.24268	306
612.75574	321
613.26886	302
613.78192	331
614.29504	314
614.80804	325
615.32111	325
615.83411	320
616.34711	317
616.86005	345
617.37299	309
617.88593	304
618.39886	304
618.91174	305
619.42462	325
619.9375	321
620.45032	309
620.96313	331
621.47595	302
621.98871	313
622.50146	343
623.01422	343
623.52692	343
624.03967	323
624.55231	324
625.065	329
625.57764	313
626.09027	317
626.60284	313
627.11542	315
627.62799	321
628.14056	314
628.65308	309
629.16559	348
629.6781	313
630.19055	308
630.703	305
631.21539	300
631.72784	335
632.24017	313
632.75256	317
633.26489	308
633.77722	325
634.28955	300
634.80182	325
635.31409	307
635.82635	298
636.33856	332
636.85077	307
637.36292	303
637.87512	313
638.38721	322
638.89935	322
639.41144	327
639.92352	315
640.43561	312
640.94763	310
641.45966	310
641.97162	312
642.48358	290
642.99554	321
643.50751	306
644.01941	318
644.53131	314
645.04315	300
645.55499	342
646.06683	319
646.57861	322
647.09045	303
647.60217	339
648.11395	318
648.62567	331
649.13733	324
649.64905	318
650.16064	307
650.6723	301
651.1839	312
651.6955	305
652.20709	340
652.71863	308
653.23016	329
653.74164	307
654.25311	312
654.76459	322
655.276	327
655.78741	329
656.29883	307
656.81018	318
657.32153	313
657.83289	314
658.34418	311
658.85547	324
659.3667	332
659.87793	332
660.38916	328
660.90033	319
661.4115	324
661.92267	309
662.43378	305
662.94489	322
663.45593	323
663.96698	298
664.47803	316
664.98907	310
665.50006	304
666.01099	316
666.52191	301
667.03284	304
667.54376	307
668.05463	289
668.56549	319
669.07629	323
669.5871	304
670.0979	305
670.60864	330
671.11938	343
671.63007	307
672.14075	309
672.65143	308
673.16205	301
673.67267	317
674.18329	321
674.69385	326
675.20435	325
675.7149	288
676.2254	318
676.73584	320
677.24628	310
677.75671	313
678.26715	324
678.77753	315
679.28784	316
679.79822	285
680.30847	327
680.81879	319
681.32904	301
681.83923	298
682.34949	300
682.85968	331
683.36981	331
683.87994	334
684.39008	311
684.90015	291
685.41022	317
685.92023	313
686.43024	337
686.94025	306
687.4502	316
687.96014	310
688.47003	305
688.97992	336
689.48981	332
689.99963	324
690.50946	311
691.01923	314
691.52899	312
692.03876	325
692.54846	313
693.05817	327
693.56781	308
694.07745	309
694.58704	294
695.09662	322
695.6062	306
696.11572	297
696.62524	302
697.1347	310
697.64417	313
698.15363	292
698.66302	314
699.17242	306
699.68176	305
700.1911	316
700.70044	302
701.20972	306
701.71893	332
702.22815	329
702.73737	315
703.24652	307
703.75568	311
704.26483	334
704.77393	307
705.28302	290
705.79205	329
706.30103	302
706.81006	291
707.31903	310
707.82794	326
708.33685	296
708.84576	321
709.35461	309
709.86346	301
710.37225	299
710.88104	308
711.38977	316
711.8985	310
712.40723	290
712.91589	296
713.42456	327
713.93317	318
714.44177	326
714.95032	300
715.45886	322
715.96735	305
716.47583	314
716.98431	315
717.49274	337
718.00116	335
718.50952	333
719.01788	320
719.52618	352
720.03448	323
720.54272	308
721.05096	305
721.5592	318
722.06738	301
722.57556	335
723.08368	321
723.59174	322
724.09985	304
724.60791	326
725.11591	299
725.6239	319
726.13184	304
726.63977	298
727.14771	316
727.65558	320
728.16339	308
728.67126	306
729.17902	325
729.68683	319
730.19452	312
730.70227	327
731.2099	318
731.71759	352
732.22522	331
732.73279	319
733.24036	315
733.74792	312
734.25543	323
734.76288	331
735.27032	325
735.77777	341
736.28516	314
736.79254	298
737.29987	311
737.80719	295
738.31445	314
738.82172	321
739.32892	282
739.83612	315
740.34326	325
740.8504	329
741.35748	313
741.86456	326
742.37164	328
742.87866	307
743.38562	311
743.89258	310
744.39954	324
744.90643	328
745.41327	336
745.9201	319
746.42694	323
746.93372	311
747.44049	335
747.9472	328
748.45386	321
748.96057	325
749.46716	335
749.97375	327
750.48035	312
750.98688	315
751.49341	320
751.99988	310
752.50635	305
753.01276	296
753.51917	321
754.02551	314
754.53186	302
755.03815	307
755.54443	308
756.05066	330
756.55688	313
757.06305	327
757.56921	315
758.07532	315
758.58142	321
759.08746	316
759.59351	321
760.09949	322
760.60547	312
761.11139	309
761.61725	317
762.12317	308
762.62897	315
763.13483	328
763.64056	330
764.1463	293
764.65204	319
765.15771	319
765.66339	300
766.16901	297
766.67462	313
767.18018	325
767.68567	325
768.19116	299
768.69666	311
769.20209	326
769.70746	302
770.21283	315
770.7182	344
771.22351	317
771.72876	303
772.23401	314
772.73926	308
773.24445	320
773.74957	319
774.2547	304
774.75977	320
775.26483	325
775.76984	306
776.27484	318
776.77979	305
777.28473	312
777.78961	317
778.29449	323
778.79932	312
779.30408	339
779.80884	335
780.3136	315
780.8183	302
781.32294	323
781.82758	336
782.33215	314
782.83673	320
783.34131	318
783.84576	309
784.35028	297
784.85468	300
785.35907	314
785.86346	303
786.3678	321
786.87213	307
787.3764	318
787.88062	314
788.38483	325
788.88898	318
789.39313	323
789.89722	311
790.40131	300
790.90533	329
791.40936	301
791.91333	315
792.4173	315
792.9212	327
793.42505	323
793.92889	320
794.43268	332
794.93646	327
795.44019	299
795.94391	323
796.44757	309
796.95123	309
797.45483	313
797.95837	319
798.46191	308
798.96539	294
799.46887	307
799.97235	319
800.47571	311
800.97906	309
801.48242	314
801.98572	313
802.48895	342
802.99219	323
803.49536	299
803.99854	311
804.50165	323
805.00476	329
805.50781	320
806.01086	302
806.51379	334
807.01678	311
807.51971	325
808.02258	322
808.52539	327
809.02826	297
809.53101	310
810.03375	291
810.53644	332
811.03912	314
811.54175	306
812.04437	314
812.54694	325
813.04944	296
813.55194	317
814.05444	317
814.55682	293
815.05927	312
815.56158	310
816.0639	320
816.56622	305
817.06842	319
817.57068	328
818.07281	338
818.57495	332
819.07709	309
819.57916	312
820.08118	317
820.58319	314
821.08514	336
821.5871	316
822.08899	317
822.59082	295
823.09265	332
823.59442	313
824.09619	311
824.5979	314
825.09955	310
825.6012	316
826.10278	322
826.60437	323
827.1059	305
827.60736	334
828.10883	309
828.61023	310
829.11163	315
829.61298	314
830.11432	338
830.61554	319
831.11682	312
831.61798	325
832.11914	318
832.6203	313
833.1214	319
833.62244	311
834.12347	324
834.62445	341
835.12537	305
835.62628	311
836.12714	317
836.62799	320
837.12878	309
837.62952	303
838.13025	306
838.63092	324
839.13153	310
839.63214	323
840.13275	318
840.63324	330
841.13373	296
841.63422	321
842.13464	344
842.63501	324
843.13538	316
843.63568	324
844.13593	312
844.63617	323
845.13635	306
845.63647	343
846.1366	304
846.63672	328
847.13672	322
847.63672	312
848.13672	333
848.6366	326
849.13647	310
849.63635	327
850.13617	335
850.63593	331
851.13568	333
851.63538	317
852.13501	316
852.63464	324
853.13422	308
853.63373	307
854.13324	301
854.63275	344
855.13214	308
855.63153	297
856.13086	319
856.63019	329
857.12946	300
857.62866	313
858.12787	320
858.62701	346
859.12616	334
859.62524	311
860.12427	314
860.62323	332
861.12219	348
861.62109	329
862.12	300
862.61884	332
863.11761	312
863.61639	330
864.11511	299
864.61377	328
865.11243	310
865.61102	322
866.10962	306
866.60809	322
867.10663	311
867.60504	323
868.10345	313
868.60181	304
869.10016	311
869.59839	309
870.09668	342
870.59485	325
871.09302	333
871.59113	292
872.08923	321
872.58728	314
873.08527	320
873.58325	299
874.08118	323
874.57904	317
875.0769	342
875.57465	321
876.07245	349
876.57013	324
877.06781	325
877.56549	298
878.06305	334
878.56061	307
879.05817	336
879.5556	318
880.05304	320
880.55042	311
881.04779	328
881.5451	310
882.04236	299
882.53961	322
883.0368	334
883.53394	322
884.03107	296
884.52808	314
885.02515	312
