Date and Time:                Fri Oct 17 08:09:21.853 2025
Software Version:             4.30.30000.0
Unstabilized Temperature (C): -88.982
Model:                        DU971P_UVB
Data Type:                    Counts
Acquisition Mode:             Single Scan
Trigger Mode:                 Internal
Exposure Time (secs):         30
Readout Mode:                 Full Vertical Binning
Horizontal binning:           2
Extended Dynamic Range:       off
Horizontally flipped:         false
Vertical Shift Speed (usecs): 9.68
Pixel Readout Rate (MHz):     3
Baseline Clamp:               ON
Clock Amplitude:              Normal
Output Amplifier:             Conventional
Serial Number:                20367
Pre-Amplifier Gain:           4x
Spurious Noise Filter Mode:   No Filter
Photon counted:               false
Data Averaging Filter Mode:   No Filter
SR193i:
Serial Number:                SR-2646
Wavelength (nm):              690
Grating Groove Density (l/mm):300
Grating Blaze:                500nm
Input Side Slit Width (um):   1000



478.32681	285
478.84332	316
479.35983	304
479.87631	313
480.39282	324
480.9093	318
481.42575	327
481.94223	329
482.45868	320
482.97513	321
483.49158	310
484.00803	337
484.52444	324
485.04086	321
485.55728	330
486.07367	331
486.59006	342
487.10645	308
487.62283	305
488.13919	306
488.65555	318
489.17191	315
489.68826	316
490.20459	314
490.72092	322
491.23724	329
491.75354	313
492.26984	316
492.78613	316
493.30243	320
493.8187	326
494.33496	321
494.85123	321
495.36746	315
495.8837	310
496.39993	324
496.91617	326
497.43237	308
497.94858	309
498.46478	324
498.98096	322
499.49713	322
500.01331	330
500.52945	317
501.04562	332
501.56174	323
502.07788	298
502.59399	319
503.11011	321
503.62622	296
504.1423	319
504.65839	307
505.17447	312
505.69052	330
506.20657	331
506.72263	307
507.23865	324
507.75467	308
508.27069	321
508.78668	328
509.30267	326
509.81866	308
510.33463	324
510.85059	317
511.36655	313
511.88248	329
512.39844	306
512.91437	300
513.43024	328
513.94617	316
514.46204	325
514.97791	303
515.49377	349
516.00964	320
516.52551	323
517.04132	308
517.55719	322
518.073	313
518.58881	313
519.10461	282
519.62036	313
520.13617	337
520.65192	305
521.16766	308
521.68341	332
522.1991	321
522.71484	318
523.23053	293
523.74622	304
524.2619	326
524.77759	315
525.29327	316
525.8089	297
526.32452	320
526.84015	315
527.35577	326
527.8714	321
528.38696	324
528.90259	313
529.41815	330
529.93372	312
530.44922	327
530.96478	318
531.48029	318
531.99579	338
532.51129	299
533.02679	322
533.5423	307
534.05774	315
534.57318	316
535.08862	320
535.60406	326
536.11945	316
536.63489	318
537.15027	317
537.66565	328
538.18097	308
538.69635	327
539.21167	340
539.72699	329
540.24231	323
540.75763	304
541.27289	318
541.78821	330
542.30347	328
542.81873	333
543.33392	316
543.84918	317
544.36438	311
544.87958	298
545.39478	322
545.90991	319
546.42511	324
546.94025	321
547.45538	327
547.97052	295
548.4856	313
549.00073	322
549.51581	312
550.03088	320
550.5459	342
551.06097	302
551.57599	318
552.091	311
552.60602	313
553.12097	330
553.63593	303
554.15094	315
554.66583	325
555.18079	308
555.69568	320
556.21063	311
556.72552	300
557.24036	319
557.75525	310
558.27008	314
558.78491	323
559.29974	329
559.81458	311
560.32935	309
560.84412	306
561.35889	312
561.87366	311
562.38837	311
562.90308	318
563.41779	300
563.9325	332
564.44714	297
564.96179	322
565.47644	311
565.99109	316
566.50574	326
567.02032	318
567.53491	319
568.0495	330
568.56403	322
569.07861	316
569.59314	320
570.1076	301
570.62213	314
571.1366	300
571.65106	328
572.16553	318
572.67999	345
573.1944	308
573.7088	314
574.22321	321
574.73755	334
575.25195	296
575.7663	317
576.28058	302
576.79492	352
577.3092	318
577.82349	332
578.33777	316
578.85205	324
579.36627	314
579.88049	327
580.39471	312
580.90887	331
581.42303	333
581.93719	314
582.45135	309
582.96545	300
583.47955	328
583.99365	307
584.50775	285
585.02179	313
585.53583	295
586.04987	314
586.5639	322
587.07788	303
587.59186	320
588.10583	315
588.61975	323
589.13373	303
589.64758	304
590.1615	293
590.67542	308
591.18927	319
591.70306	323
592.21692	298
592.73071	319
593.24451	306
593.7583	294
594.27209	318
594.78583	323
595.29956	302
595.81323	326
596.32697	316
596.84064	319
597.35425	313
597.86792	343
598.38153	322
598.89514	322
599.40875	332
599.9223	328
600.43585	320
600.9494	322
601.46289	323
601.97638	329
602.48987	311
603.00336	348
603.51678	302
604.03021	335
604.54364	301
605.05701	310
605.57043	310
606.08374	307
606.59711	344
607.11041	311
607.62372	327
608.13702	324
608.65027	308
609.16351	315
609.67676	317
610.19	317
610.70319	316
611.21637	309
611.72949	342
612.24268	331
612.75574	314
613.26886	315
613.78192	284
614.29504	315
614.80804	325
615.32111	295
615.83411	317
616.34711	315
616.86005	323
617.37299	309
617.88593	317
618.39886	308
618.91174	318
619.42462	303
619.9375	309
620.45032	314
620.96313	297
621.47595	307
621.98871	323
622.50146	312
623.01422	308
623.52692	289
624.03967	310
624.55231	315
625.065	330
625.57764	319
626.09027	326
626.60284	341
627.11542	326
627.62799	291
628.14056	323
628.65308	319
629.16559	330
629.6781	308
630.19055	308
630.703	312
631.21539	318
631.72784	316
632.24017	328
632.75256	315
633.26489	300
633.77722	325
634.28955	319
634.80182	298
635.31409	322
635.82635	313
636.33856	300
636.85077	315
637.36292	326
637.87512	318
638.38721	323
638.89935	312
639.41144	313
639.92352	317
640.43561	322
640.94763	323
641.45966	306
641.97162	322
642.48358	331
642.99554	328
643.50751	326
644.01941	307
644.53131	292
645.04315	340
645.55499	298
646.06683	303
646.57861	317
647.09045	297
647.60217	325
648.11395	300
648.62567	309
649.13733	322
649.64905	313
650.16064	318
650.6723	310
651.1839	300
651.6955	288
652.20709	313
652.71863	322
653.23016	326
653.74164	313
654.25311	332
654.76459	321
655.276	316
655.78741	306
656.29883	305
656.81018	313
657.32153	301
657.83289	297
658.34418	314
658.85547	338
659.3667	321
659.87793	314
660.38916	312
660.90033	311
661.4115	335
661.92267	327
662.43378	302
662.94489	294
663.45593	310
663.96698	297
664.47803	314
664.98907	320
665.50006	302
666.01099	323
666.52191	335
667.03284	310
667.54376	328
668.05463	310
668.56549	311
669.07629	316
669.5871	328
670.0979	308
670.60864	306
671.11938	336
671.63007	304
672.14075	308
672.65143	335
673.16205	319
673.67267	309
674.18329	322
674.69385	331
675.20435	310
675.7149	325
676.2254	343
676.73584	304
677.24628	321
677.75671	328
678.26715	318
678.77753	310
679.28784	308
679.79822	325
680.30847	313
680.81879	301
681.32904	331
681.83923	317
682.34949	312
682.85968	296
683.36981	323
683.87994	323
684.39008	300
684.90015	299
685.41022	298
685.92023	341
686.43024	321
686.94025	330
687.4502	330
687.96014	335
688.47003	324
688.97992	308
689.48981	307
689.99963	322
690.50946	307
691.01923	321
691.52899	316
692.03876	312
692.54846	320
693.05817	308
693.56781	334
694.07745	318
694.58704	318
695.09662	306
695.6062	315
696.11572	332
696.62524	307
697.1347	295
697.64417	307
698.15363	328
698.66302	328
699.17242	323
699.68176	323
700.1911	321
700.70044	307
701.20972	308
701.71893	322
702.22815	319
702.73737	325
703.24652	310
703.75568	314
704.26483	298
704.77393	312
705.28302	314
705.79205	328
706.30103	325
706.81006	323
707.31903	303
707.82794	304
708.33685	304
708.84576	325
709.35461	306
709.86346	317
710.37225	320
710.88104	314
711.38977	305
711.8985	309
712.40723	333
712.91589	335
713.42456	315
713.93317	324
714.44177	321
714.95032	308
715.45886	352
715.96735	299
716.47583	305
716.98431	322
717.49274	337
718.00116	296
718.50952	311
719.01788	317
719.52618	332
720.03448	314
720.54272	305
721.05096	326
721.5592	317
722.06738	318
722.57556	332
723.08368	321
723.59174	321
724.09985	315
724.60791	317
725.11591	310
725.6239	316
726.13184	326
726.63977	322
727.14771	302
727.65558	339
728.16339	314
728.67126	316
729.17902	311
729.68683	323
730.19452	315
730.70227	329
731.2099	336
731.71759	312
732.22522	308
732.73279	322
733.24036	317
733.74792	308
734.25543	307
734.76288	307
735.27032	307
735.77777	304
736.28516	316
736.79254	329
737.29987	304
737.80719	329
738.31445	294
738.82172	306
739.32892	297
739.83612	345
740.34326	317
740.8504	309
741.35748	310
741.86456	320
742.37164	336
742.87866	344
743.38562	344
743.89258	296
744.39954	326
744.90643	322
745.41327	307
745.9201	314
746.42694	310
746.93372	314
747.44049	306
747.9472	308
748.45386	316
748.96057	330
749.46716	328
749.97375	330
750.48035	311
750.98688	305
751.49341	297
751.99988	320
752.50635	318
753.01276	306
753.51917	305
754.02551	306
754.53186	317
755.03815	329
755.54443	320
756.05066	305
756.55688	336
757.06305	329
757.56921	313
758.07532	320
758.58142	313
759.08746	311
759.59351	310
760.09949	311
760.60547	318
761.11139	311
761.61725	316
762.12317	301
762.62897	297
763.13483	311
763.64056	293
764.1463	316
764.65204	333
765.15771	320
765.66339	294
766.16901	312
766.67462	311
767.18018	325
767.68567	306
768.19116	319
768.69666	324
769.20209	315
769.70746	291
770.21283	294
770.7182	313
771.22351	288
771.72876	312
772.23401	345
772.73926	323
773.24445	323
773.74957	330
774.2547	303
774.75977	291
775.26483	304
775.76984	346
776.27484	335
776.77979	327
777.28473	308
777.78961	318
778.29449	300
778.79932	309
779.30408	330
779.80884	329
780.3136	302
780.8183	322
781.32294	305
781.82758	315
782.33215	327
782.83673	323
783.34131	297
783.84576	308
784.35028	292
784.85468	308
785.35907	309
785.86346	311
786.3678	326
786.87213	325
787.3764	344
787.88062	334
788.38483	302
788.88898	319
789.39313	307
789.89722	303
790.40131	337
790.90533	340
791.40936	308
791.91333	314
792.4173	313
792.9212	319
793.42505	320
793.92889	301
794.43268	309
794.93646	316
795.44019	307
795.94391	315
796.44757	304
796.95123	305
797.45483	311
797.95837	311
798.46191	323
798.96539	310
799.46887	314
799.97235	338
800.47571	323
800.97906	341
801.48242	307
801.98572	306
802.48895	325
802.99219	315
803.49536	315
803.99854	307
804.50165	320
805.00476	312
805.50781	313
806.01086	299
806.51379	316
807.01678	310
807.51971	311
808.02258	308
808.52539	298
809.02826	318
809.53101	301
810.03375	305
810.53644	297
811.03912	302
811.54175	317
812.04437	302
812.54694	299
813.04944	318
813.55194	301
814.05444	329
814.55682	304
815.05927	318
815.56158	304
816.0639	326
816.56622	286
817.06842	305
817.57068	285
818.07281	304
818.57495	305
819.07709	326
819.57916	322
820.08118	323
820.58319	320
821.08514	314
821.5871	314
822.08899	316
822.59082	320
823.09265	317
823.59442	310
824.09619	298
824.5979	324
825.09955	314
825.6012	311
826.10278	306
826.60437	307
827.1059	305
827.60736	315
828.10883	313
828.61023	332
829.11163	322
829.61298	324
830.11432	310
830.61554	323
831.11682	326
831.61798	313
832.11914	321
832.6203	326
833.1214	327
833.62244	331
834.12347	329
834.62445	306
835.12537	324
835.62628	339
836.12714	328
836.62799	305
837.12878	313
837.62952	335
838.13025	320
838.63092	323
839.13153	319
839.63214	324
840.13275	302
840.63324	318
841.13373	319
841.63422	303
842.13464	316
842.63501	338
843.13538	311
843.63568	329
844.13593	334
844.63617	327
845.13635	302
845.63647	307
846.1366	334
846.63672	310
847.13672	328
847.63672	314
848.13672	313
848.6366	336
849.13647	334
849.63635	313
850.13617	317
850.63593	325
851.13568	311
851.63538	317
852.13501	333
852.63464	326
853.13422	335
853.63373	309
854.13324	311
854.63275	306
855.13214	291
855.63153	320
856.13086	308
856.63019	309
857.12946	330
857.62866	346
858.12787	308
858.62701	342
859.12616	331
859.62524	326
860.12427	324
860.62323	324
861.12219	319
861.62109	316
862.12	306
862.61884	306
863.11761	315
863.61639	327
864.11511	309
864.61377	319
865.11243	321
865.61102	321
866.10962	320
866.60809	320
867.10663	297
867.60504	313
868.10345	341
868.60181	323
869.10016	320
869.59839	346
870.09668	325
870.59485	319
871.09302	316
871.59113	324
872.08923	321
872.58728	314
873.08527	332
873.58325	335
874.08118	306
874.57904	313
875.0769	311
875.57465	314
876.07245	321
876.57013	295
877.06781	341
877.56549	329
878.06305	333
878.56061	317
879.05817	326
879.5556	341
880.05304	307
880.55042	320
881.04779	322
881.5451	301
882.04236	306
882.53961	322
883.0368	331
883.53394	326
884.03107	315
884.52808	322
885.02515	312
