Date and Time:                Sun Nov 2 15:03:32.336 2025
Software Version:             4.30.30000.0
Temperature (C):              -90
Model:                        DU971P_UVB
Data Type:                    Counts
Acquisition Mode:             Single Scan
Trigger Mode:                 Internal
Exposure Time (secs):         30
Readout Mode:                 Full Vertical Binning
Horizontal binning:           2
Extended Dynamic Range:       off
Horizontally flipped:         false
Vertical Shift Speed (usecs): 9.68
Pixel Readout Rate (MHz):     3
Baseline Clamp:               ON
Clock Amplitude:              Normal
Output Amplifier:             Conventional
Serial Number:                20367
Pre-Amplifier Gain:           4x
Spurious Noise Filter Mode:   No Filter
Photon counted:               false
Data Averaging Filter Mode:   No Filter
SR193i:
Serial Number:                SR-2646
Wavelength (nm):              690
Grating Groove Density (l/mm):300
Grating Blaze:                500nm
Input Side Slit Width (um):   1000



478.32681	322
478.84332	367
479.35983	385
479.87631	360
480.39282	343
480.9093	368
481.42575	383
481.94223	375
482.45868	357
482.97513	373
483.49158	377
484.00803	333
484.52444	395
485.04086	404
485.55728	413
486.07367	442
486.59006	469
487.10645	467
487.62283	492
488.13919	498
488.65555	516
489.17191	582
489.68826	570
490.20459	602
490.72092	593
491.23724	617
491.75354	636
492.26984	661
492.78613	669
493.30243	744
493.8187	737
494.33496	730
494.85123	792
495.36746	798
495.8837	893
496.39993	822
496.91617	882
497.43237	891
497.94858	897
498.46478	963
498.98096	966
499.49713	947
500.01331	945
500.52945	981
501.04562	999
501.56174	947
502.07788	983
502.59399	989
503.11011	990
503.62622	1021
504.1423	954
504.65839	1032
505.17447	980
505.69052	1017
506.20657	1001
506.72263	1042
507.23865	1014
507.75467	988
508.27069	1066
508.78668	1041
509.30267	1055
509.81866	1058
510.33463	1069
510.85059	1047
511.36655	1070
511.88248	989
512.39844	1024
512.91437	1061
513.43024	1012
513.94617	1022
514.46204	1019
514.97791	1031
515.49377	1064
516.00964	1017
516.52551	1042
517.04132	1057
517.55719	1054
518.073	1039
518.58881	1072
519.10461	1050
519.62036	1028
520.13617	1056
520.65192	1048
521.16766	989
521.68341	1029
522.1991	1029
522.71484	1066
523.23053	974
523.74622	999
524.2619	1052
524.77759	1058
525.29327	954
525.8089	1051
526.32452	1000
526.84015	1026
527.35577	981
527.8714	949
528.38696	938
528.90259	966
529.41815	967
529.93372	1042
530.44922	927
530.96478	1012
531.48029	956
531.99579	967
532.51129	963
533.02679	933
533.5423	922
534.05774	914
534.57318	899
535.08862	930
535.60406	918
536.11945	930
536.63489	964
537.15027	905
537.66565	904
538.18097	942
538.69635	909
539.21167	889
539.72699	950
540.24231	912
540.75763	950
541.27289	892
541.78821	896
542.30347	886
542.81873	918
543.33392	905
543.84918	857
544.36438	886
544.87958	879
545.39478	904
545.90991	907
546.42511	846
546.94025	822
547.45538	873
547.97052	837
548.4856	817
549.00073	863
549.51581	916
550.03088	824
550.5459	887
551.06097	829
551.57599	845
552.091	866
552.60602	831
553.12097	843
553.63593	857
554.15094	873
554.66583	816
555.18079	863
555.69568	839
556.21063	888
556.72552	821
557.24036	820
557.75525	893
558.27008	868
558.78491	881
559.29974	878
559.81458	882
560.32935	885
560.84412	889
561.35889	869
561.87366	824
562.38837	886
562.90308	895
563.41779	934
563.9325	869
564.44714	938
564.96179	916
565.47644	905
565.99109	958
566.50574	895
567.02032	933
567.53491	917
568.0495	898
568.56403	982
569.07861	963
569.59314	926
570.1076	957
570.62213	978
571.1366	949
571.65106	956
572.16553	996
572.67999	1023
573.1944	976
573.7088	938
574.22321	956
574.73755	957
575.25195	963
575.7663	1028
576.28058	1064
576.79492	1079
577.3092	1064
577.82349	1077
578.33777	1099
578.85205	1038
579.36627	1130
579.88049	1119
580.39471	1121
580.90887	1130
581.42303	1140
581.93719	1144
582.45135	1139
582.96545	1164
583.47955	1111
583.99365	1129
584.50775	1221
585.02179	1191
585.53583	1154
586.04987	1141
586.5639	1160
587.07788	1236
587.59186	1234
588.10583	1237
588.61975	1176
589.13373	1193
589.64758	1230
590.1615	1254
590.67542	1271
591.18927	1301
591.70306	1261
592.21692	1352
592.73071	1320
593.24451	1357
593.7583	1273
594.27209	1380
594.78583	1364
595.29956	1367
595.81323	1415
596.32697	1420
596.84064	1370
597.35425	1337
597.86792	1361
598.38153	1372
598.89514	1386
599.40875	1416
599.9223	1454
600.43585	1404
600.9494	1450
601.46289	1401
601.97638	1478
602.48987	1483
603.00336	1429
603.51678	1536
604.03021	1430
604.54364	1548
605.05701	1434
605.57043	1418
606.08374	1488
606.59711	1510
607.11041	1534
607.62372	1520
608.13702	1519
608.65027	1555
609.16351	1475
609.67676	1590
610.19	1616
610.70319	1569
611.21637	1563
611.72949	1545
612.24268	1570
612.75574	1603
613.26886	1608
613.78192	1654
614.29504	1630
614.80804	1602
615.32111	1552
615.83411	1571
616.34711	1600
616.86005	1549
617.37299	1627
617.88593	1671
618.39886	1626
618.91174	1606
619.42462	1583
619.9375	1576
620.45032	1617
620.96313	1674
621.47595	1628
621.98871	1630
622.50146	1667
623.01422	1673
623.52692	1695
624.03967	1658
624.55231	1645
625.065	1703
625.57764	1728
626.09027	1598
626.60284	1645
627.11542	1682
627.62799	1714
628.14056	1684
628.65308	1727
629.16559	1727
629.6781	1667
630.19055	1715
630.703	1717
631.21539	1616
631.72784	1683
632.24017	1673
632.75256	1743
633.26489	1715
633.77722	1681
634.28955	1720
634.80182	1696
635.31409	1680
635.82635	1650
636.33856	1699
636.85077	1672
637.36292	1682
637.87512	1680
638.38721	1712
638.89935	1697
639.41144	1665
639.92352	1669
640.43561	1652
640.94763	1683
641.45966	1656
641.97162	1619
642.48358	1704
642.99554	1690
643.50751	1608
644.01941	1658
644.53131	1704
645.04315	1714
645.55499	1665
646.06683	1652
646.57861	1612
647.09045	1656
647.60217	1721
648.11395	1718
648.62567	1681
649.13733	1564
649.64905	1666
650.16064	1655
650.6723	1743
651.1839	1637
651.6955	1671
652.20709	1583
652.71863	1612
653.23016	1556
653.74164	1604
654.25311	1653
654.76459	1671
655.276	1586
655.78741	1730
656.29883	1558
656.81018	1636
657.32153	1623
657.83289	1620
658.34418	1542
658.85547	1609
659.3667	1636
659.87793	1546
660.38916	1583
660.90033	1709
661.4115	3464
661.92267	1572
662.43378	1549
662.94489	1532
663.45593	1635
663.96698	1503
664.47803	1624
664.98907	1555
665.50006	1535
666.01099	1494
666.52191	1530
667.03284	1544
667.54376	1551
668.05463	1578
668.56549	1492
669.07629	1511
669.5871	1528
670.0979	1524
670.60864	1470
671.11938	1422
671.63007	1471
672.14075	1390
672.65143	1417
673.16205	1369
673.67267	1454
674.18329	1383
674.69385	1409
675.20435	1352
675.7149	1441
676.2254	1435
676.73584	1467
677.24628	1452
677.75671	1421
678.26715	1324
678.77753	1356
679.28784	1455
679.79822	1373
680.30847	1355
680.81879	1379
681.32904	1318
681.83923	1347
682.34949	1320
682.85968	1342
683.36981	1359
683.87994	1317
684.39008	1327
684.90015	1322
685.41022	1307
685.92023	1275
686.43024	1290
686.94025	1320
687.4502	1261
687.96014	1282
688.47003	1250
688.97992	1231
689.48981	1235
689.99963	1280
690.50946	1265
691.01923	1231
691.52899	1212
692.03876	1272
692.54846	1166
693.05817	1129
693.56781	1211
694.07745	1149
694.58704	1238
695.09662	1230
695.6062	1198
696.11572	1185
696.62524	1175
697.1347	1133
697.64417	1117
698.15363	1157
698.66302	1091
699.17242	1100
699.68176	1105
700.1911	1075
700.70044	997
701.20972	1101
701.71893	1138
702.22815	1145
702.73737	1093
703.24652	1133
703.75568	1067
704.26483	1047
704.77393	1044
705.28302	1123
705.79205	1036
706.30103	1042
706.81006	1038
707.31903	1030
707.82794	1028
708.33685	999
708.84576	996
709.35461	978
709.86346	1003
710.37225	963
710.88104	984
711.38977	960
711.8985	977
712.40723	920
712.91589	903
713.42456	956
713.93317	990
714.44177	942
714.95032	923
715.45886	876
715.96735	932
716.47583	913
716.98431	938
717.49274	837
718.00116	845
718.50952	900
719.01788	846
719.52618	861
720.03448	861
720.54272	905
721.05096	876
721.5592	871
722.06738	866
722.57556	848
723.08368	869
723.59174	808
724.09985	846
724.60791	781
725.11591	832
725.6239	832
726.13184	803
726.63977	814
727.14771	792
727.65558	803
728.16339	800
728.67126	776
729.17902	796
729.68683	790
730.19452	743
730.70227	735
731.2099	808
731.71759	809
732.22522	771
732.73279	689
733.24036	761
733.74792	738
734.25543	757
734.76288	765
735.27032	741
735.77777	701
736.28516	725
736.79254	792
737.29987	752
737.80719	735
738.31445	747
738.82172	644
739.32892	719
739.83612	673
740.34326	704
740.8504	692
741.35748	691
741.86456	638
742.37164	665
742.87866	694
743.38562	655
743.89258	627
744.39954	643
744.90643	673
745.41327	678
745.9201	621
746.42694	601
746.93372	641
747.44049	638
747.9472	630
748.45386	613
748.96057	621
749.46716	621
749.97375	625
750.48035	629
750.98688	595
751.49341	582
751.99988	567
752.50635	598
753.01276	569
753.51917	572
754.02551	640
754.53186	575
755.03815	591
755.54443	552
756.05066	563
756.55688	612
757.06305	544
757.56921	568
758.07532	536
758.58142	554
759.08746	571
759.59351	554
760.09949	572
760.60547	562
761.11139	545
761.61725	517
762.12317	549
762.62897	552
763.13483	513
763.64056	525
764.1463	558
764.65204	530
765.15771	531
765.66339	528
766.16901	528
766.67462	543
767.18018	522
767.68567	534
768.19116	476
768.69666	504
769.20209	514
769.70746	526
770.21283	470
770.7182	506
771.22351	502
771.72876	510
772.23401	481
772.73926	518
773.24445	475
773.74957	483
774.2547	449
774.75977	507
775.26483	502
775.76984	492
776.27484	463
776.77979	479
777.28473	474
777.78961	464
778.29449	430
778.79932	464
779.30408	442
779.80884	479
780.3136	465
780.8183	475
781.32294	441
781.82758	463
782.33215	449
782.83673	470
783.34131	424
783.84576	465
784.35028	445
784.85468	461
785.35907	448
785.86346	441
786.3678	425
786.87213	422
787.3764	429
787.88062	397
788.38483	434
788.88898	436
789.39313	403
789.89722	401
790.40131	381
790.90533	427
791.40936	402
791.91333	414
792.4173	396
792.9212	407
793.42505	398
793.92889	403
794.43268	440
794.93646	415
795.44019	407
795.94391	402
796.44757	403
796.95123	433
797.45483	377
797.95837	408
798.46191	377
798.96539	405
799.46887	378
799.97235	409
800.47571	428
800.97906	394
801.48242	402
801.98572	391
802.48895	396
802.99219	402
803.49536	382
803.99854	384
804.50165	387
805.00476	388
805.50781	404
806.01086	420
806.51379	396
807.01678	387
807.51971	368
808.02258	365
808.52539	380
809.02826	400
809.53101	375
810.03375	394
810.53644	396
811.03912	384
811.54175	394
812.04437	385
812.54694	394
813.04944	379
813.55194	359
814.05444	366
814.55682	367
815.05927	387
815.56158	389
816.0639	365
816.56622	351
817.06842	340
817.57068	382
818.07281	387
818.57495	376
819.07709	373
819.57916	363
820.08118	369
820.58319	380
821.08514	375
821.5871	366
822.08899	341
822.59082	369
823.09265	341
823.59442	370
824.09619	374
824.5979	376
825.09955	386
825.6012	382
826.10278	355
826.60437	360
827.1059	359
827.60736	354
828.10883	369
828.61023	373
829.11163	355
829.61298	374
830.11432	381
830.61554	308
831.11682	365
831.61798	387
832.11914	361
832.6203	343
833.1214	358
833.62244	361
834.12347	350
834.62445	378
835.12537	360
835.62628	383
836.12714	352
836.62799	355
837.12878	362
837.62952	347
838.13025	367
838.63092	373
839.13153	364
839.63214	367
840.13275	374
840.63324	355
841.13373	378
841.63422	347
842.13464	363
842.63501	355
843.13538	355
843.63568	348
844.13593	340
844.63617	344
845.13635	350
845.63647	356
846.1366	353
846.63672	369
847.13672	348
847.63672	344
848.13672	354
848.6366	349
849.13647	363
849.63635	337
850.13617	344
850.63593	355
851.13568	346
851.63538	354
852.13501	351
852.63464	362
853.13422	365
853.63373	374
854.13324	345
854.63275	325
855.13214	356
855.63153	368
856.13086	367
856.63019	362
857.12946	362
857.62866	368
858.12787	353
858.62701	362
859.12616	367
859.62524	347
860.12427	367
860.62323	366
861.12219	344
861.62109	367
862.12	341
862.61884	362
863.11761	385
863.61639	353
864.11511	337
864.61377	325
865.11243	362
865.61102	349
866.10962	362
866.60809	342
867.10663	331
867.60504	365
868.10345	366
868.60181	392
869.10016	361
869.59839	377
870.09668	391
870.59485	454
871.09302	580
871.59113	616
872.08923	725
872.58728	789
873.08527	851
873.58325	866
874.08118	899
874.57904	866
875.0769	924
875.57465	875
876.07245	856
876.57013	850
877.06781	904
877.56549	900
878.06305	921
878.56061	875
879.05817	869
879.5556	906
880.05304	905
880.55042	870
881.04779	916
881.5451	925
882.04236	900
882.53961	903
883.0368	928
883.53394	955
884.03107	907
884.52808	931
885.02515	1031
