Date and Time:                Fri Oct 17 08:24:22.266 2025
Software Version:             4.30.30000.0
Temperature (C):              -90
Model:                        DU971P_UVB
Data Type:                    Counts
Acquisition Mode:             Single Scan
Trigger Mode:                 Internal
Exposure Time (secs):         0.5
Readout Mode:                 Full Vertical Binning
Horizontal binning:           2
Extended Dynamic Range:       off
Horizontally flipped:         false
Vertical Shift Speed (usecs): 9.68
Pixel Readout Rate (MHz):     3
Baseline Clamp:               ON
Clock Amplitude:              Normal
Output Amplifier:             Conventional
Serial Number:                20367
Pre-Amplifier Gain:           4x
Spurious Noise Filter Mode:   No Filter
Photon counted:               false
Data Averaging Filter Mode:   No Filter
SR193i:
Serial Number:                SR-2646
Wavelength (nm):              690
Grating Groove Density (l/mm):300
Grating Blaze:                500nm
Input Side Slit Width (um):   1000



478.32681	272
478.84332	300
479.35983	318
479.87631	341
480.39282	306
480.9093	334
481.42575	322
481.94223	321
482.45868	324
482.97513	352
483.49158	318
484.00803	345
484.52444	416
485.04086	477
485.55728	505
486.07367	534
486.59006	584
487.10645	604
487.62283	696
488.13919	670
488.65555	740
489.17191	800
489.68826	843
490.20459	893
490.72092	906
491.23724	959
491.75354	1022
492.26984	1083
492.78613	1104
493.30243	1226
493.8187	1211
494.33496	1274
494.85123	1312
495.36746	1398
495.8837	1481
496.39993	1536
496.91617	1604
497.43237	1705
497.94858	1805
498.46478	1832
498.98096	1954
499.49713	2020
500.01331	2188
500.52945	2354
501.04562	2451
501.56174	2634
502.07788	2868
502.59399	3149
503.11011	3373
503.62622	3682
504.1423	4042
504.65839	4343
505.17447	4950
505.69052	5377
506.20657	6078
506.72263	6842
507.23865	7595
507.75467	8365
508.27069	9332
508.78668	10273
509.30267	11191
509.81866	12254
510.33463	13415
510.85059	14402
511.36655	15710
511.88248	16260
512.39844	17147
512.91437	17522
513.43024	18053
513.94617	18853
514.46204	18991
514.97791	19516
515.49377	19942
516.00964	20061
516.52551	19662
517.04132	20003
517.55719	19578
518.073	19077
518.58881	18843
519.10461	18477
519.62036	17973
520.13617	17327
520.65192	17076
521.16766	15964
521.68341	15704
522.1991	14845
522.71484	14055
523.23053	13152
523.74622	12027
524.2619	11066
524.77759	10036
525.29327	9118
525.8089	8083
526.32452	7149
526.84015	6454
527.35577	5612
527.8714	4996
528.38696	4546
528.90259	3989
529.41815	3562
529.93372	3183
530.44922	2962
530.96478	2655
531.48029	2478
531.99579	2434
532.51129	2321
533.02679	2328
533.5423	2356
534.05774	2240
534.57318	2168
535.08862	2118
535.60406	2167
536.11945	2059
536.63489	2026
537.15027	2044
537.66565	1977
538.18097	2018
538.69635	2084
539.21167	1890
539.72699	1897
540.24231	1804
540.75763	1913
541.27289	1837
541.78821	1816
542.30347	1720
542.81873	1677
543.33392	1636
543.84918	1637
544.36438	1526
544.87958	1503
545.39478	1468
545.90991	1498
546.42511	1470
546.94025	1435
547.45538	1447
547.97052	1392
548.4856	1339
549.00073	1389
549.51581	1443
550.03088	1351
550.5459	1292
551.06097	1320
551.57599	1225
552.091	1308
552.60602	1302
553.12097	1256
553.63593	1234
554.15094	1210
554.66583	1315
555.18079	1301
555.69568	1173
556.21063	1263
556.72552	1190
557.24036	1287
557.75525	1173
558.27008	1174
558.78491	1165
559.29974	1185
559.81458	1152
560.32935	1145
560.84412	1171
561.35889	1099
561.87366	1117
562.38837	1130
562.90308	1069
563.41779	1019
563.9325	1135
564.44714	1084
564.96179	1031
565.47644	1121
565.99109	1040
566.50574	1023
567.02032	1063
567.53491	1034
568.0495	1085
568.56403	1088
569.07861	1094
569.59314	1022
570.1076	1042
570.62213	1016
571.1366	1014
571.65106	980
572.16553	1019
572.67999	968
573.1944	944
573.7088	965
574.22321	999
574.73755	937
575.25195	972
575.7663	965
576.28058	946
576.79492	867
577.3092	945
577.82349	980
578.33777	845
578.85205	879
579.36627	916
579.88049	943
580.39471	828
580.90887	890
581.42303	837
581.93719	812
582.45135	840
582.96545	843
583.47955	852
583.99365	885
584.50775	844
585.02179	823
585.53583	828
586.04987	809
586.5639	810
587.07788	777
587.59186	815
588.10583	845
588.61975	813
589.13373	813
589.64758	804
590.1615	766
590.67542	795
591.18927	762
591.70306	767
592.21692	756
592.73071	726
593.24451	759
593.7583	770
594.27209	761
594.78583	792
595.29956	738
595.81323	729
596.32697	707
596.84064	753
597.35425	713
597.86792	711
598.38153	713
598.89514	698
599.40875	645
599.9223	709
600.43585	695
600.9494	687
601.46289	655
601.97638	674
602.48987	692
603.00336	617
603.51678	657
604.03021	676
604.54364	666
605.05701	622
605.57043	666
606.08374	627
606.59711	614
607.11041	616
607.62372	652
608.13702	621
608.65027	635
609.16351	638
609.67676	633
610.19	634
610.70319	620
611.21637	624
611.72949	615
612.24268	581
612.75574	628
613.26886	599
613.78192	601
614.29504	589
614.80804	603
615.32111	621
615.83411	577
616.34711	569
616.86005	589
617.37299	586
617.88593	561
618.39886	575
618.91174	564
619.42462	580
619.9375	569
620.45032	532
620.96313	574
621.47595	546
621.98871	530
622.50146	521
623.01422	568
623.52692	593
624.03967	549
624.55231	560
625.065	517
625.57764	561
626.09027	517
626.60284	553
627.11542	521
627.62799	480
628.14056	536
628.65308	502
629.16559	530
629.6781	543
630.19055	569
630.703	575
631.21539	551
631.72784	501
632.24017	500
632.75256	478
633.26489	504
633.77722	484
634.28955	508
634.80182	493
635.31409	466
635.82635	519
636.33856	501
636.85077	501
637.36292	507
637.87512	490
638.38721	466
638.89935	487
639.41144	470
639.92352	484
640.43561	460
640.94763	446
641.45966	473
641.97162	470
642.48358	453
642.99554	462
643.50751	462
644.01941	470
644.53131	437
645.04315	449
645.55499	464
646.06683	431
646.57861	436
647.09045	459
647.60217	440
648.11395	436
648.62567	430
649.13733	441
649.64905	446
650.16064	437
650.6723	430
651.1839	429
651.6955	439
652.20709	406
652.71863	426
653.23016	426
653.74164	410
654.25311	395
654.76459	427
655.276	409
655.78741	381
656.29883	416
656.81018	420
657.32153	378
657.83289	431
658.34418	404
658.85547	431
659.3667	387
659.87793	407
660.38916	428
660.90033	420
661.4115	421
661.92267	378
662.43378	393
662.94489	393
663.45593	387
663.96698	419
664.47803	367
664.98907	394
665.50006	399
666.01099	416
666.52191	377
667.03284	343
667.54376	379
668.05463	380
668.56549	391
669.07629	413
669.5871	361
670.0979	371
670.60864	413
671.11938	404
671.63007	374
672.14075	398
672.65143	382
673.16205	407
673.67267	371
674.18329	394
674.69385	363
675.20435	350
675.7149	365
676.2254	400
676.73584	390
677.24628	400
677.75671	360
678.26715	366
678.77753	353
679.28784	387
679.79822	368
680.30847	374
680.81879	351
681.32904	374
681.83923	384
682.34949	363
682.85968	359
683.36981	381
683.87994	359
684.39008	370
684.90015	355
685.41022	368
685.92023	386
686.43024	336
686.94025	347
687.4502	361
687.96014	351
688.47003	344
688.97992	374
689.48981	377
689.99963	372
690.50946	353
691.01923	369
691.52899	339
692.03876	358
692.54846	336
693.05817	348
693.56781	366
694.07745	331
694.58704	351
695.09662	357
695.6062	369
696.11572	338
696.62524	326
697.1347	340
697.64417	342
698.15363	360
698.66302	342
699.17242	362
699.68176	368
700.1911	360
700.70044	355
701.20972	346
701.71893	343
702.22815	334
702.73737	361
703.24652	337
703.75568	336
704.26483	335
704.77393	338
705.28302	322
705.79205	367
706.30103	330
706.81006	334
707.31903	349
707.82794	331
708.33685	344
708.84576	356
709.35461	321
709.86346	347
710.37225	328
710.88104	330
711.38977	326
711.8985	335
712.40723	342
712.91589	312
713.42456	325
713.93317	347
714.44177	328
714.95032	331
715.45886	348
715.96735	335
716.47583	355
716.98431	314
717.49274	355
718.00116	316
718.50952	334
719.01788	328
719.52618	333
720.03448	344
720.54272	335
721.05096	336
721.5592	321
722.06738	318
722.57556	333
723.08368	348
723.59174	336
724.09985	333
724.60791	346
725.11591	323
725.6239	310
726.13184	318
726.63977	323
727.14771	311
727.65558	317
728.16339	330
728.67126	326
729.17902	335
729.68683	346
730.19452	328
730.70227	321
731.2099	325
731.71759	317
732.22522	315
732.73279	320
733.24036	334
733.74792	334
734.25543	322
734.76288	339
735.27032	326
735.77777	329
736.28516	338
736.79254	367
737.29987	328
737.80719	337
738.31445	334
738.82172	331
739.32892	329
739.83612	338
740.34326	342
740.8504	320
741.35748	313
741.86456	333
742.37164	341
742.87866	314
743.38562	321
743.89258	313
744.39954	328
744.90643	336
745.41327	334
745.9201	341
746.42694	303
746.93372	316
747.44049	361
747.9472	329
748.45386	326
748.96057	318
749.46716	334
749.97375	315
750.48035	355
750.98688	308
751.49341	323
751.99988	311
752.50635	317
753.01276	316
753.51917	318
754.02551	332
754.53186	322
755.03815	310
755.54443	333
756.05066	315
756.55688	310
757.06305	328
757.56921	320
758.07532	317
758.58142	323
759.08746	309
759.59351	325
760.09949	308
760.60547	327
761.11139	315
761.61725	314
762.12317	306
762.62897	342
763.13483	321
763.64056	319
764.1463	314
764.65204	323
765.15771	295
765.66339	312
766.16901	312
766.67462	307
767.18018	303
767.68567	322
768.19116	320
768.69666	318
769.20209	304
769.70746	315
770.21283	321
770.7182	307
771.22351	303
771.72876	325
772.23401	299
772.73926	330
773.24445	324
773.74957	321
774.2547	326
774.75977	327
775.26483	326
775.76984	326
776.27484	328
776.77979	318
777.28473	290
777.78961	329
778.29449	320
778.79932	307
779.30408	331
779.80884	302
780.3136	310
780.8183	332
781.32294	295
781.82758	319
782.33215	324
782.83673	303
783.34131	318
783.84576	317
784.35028	303
784.85468	313
785.35907	303
785.86346	320
786.3678	307
786.87213	323
787.3764	307
787.88062	289
788.38483	327
788.88898	325
789.39313	324
789.89722	318
790.40131	301
790.90533	306
791.40936	301
791.91333	312
792.4173	319
792.9212	332
793.42505	310
793.92889	303
794.43268	309
794.93646	313
795.44019	299
795.94391	288
796.44757	322
796.95123	327
797.45483	302
797.95837	310
798.46191	318
798.96539	297
799.46887	299
799.97235	306
800.47571	300
800.97906	351
801.48242	303
801.98572	307
802.48895	321
802.99219	313
803.49536	321
803.99854	301
804.50165	311
805.00476	309
805.50781	296
806.01086	332
806.51379	306
807.01678	328
807.51971	320
808.02258	303
808.52539	325
809.02826	323
809.53101	309
810.03375	320
810.53644	311
811.03912	321
811.54175	297
812.04437	302
812.54694	318
813.04944	309
813.55194	283
814.05444	303
814.55682	314
815.05927	323
815.56158	295
816.0639	311
816.56622	312
817.06842	322
817.57068	318
818.07281	311
818.57495	313
819.07709	300
819.57916	308
820.08118	318
820.58319	304
821.08514	314
821.5871	326
822.08899	301
822.59082	305
823.09265	312
823.59442	308
824.09619	302
824.5979	308
825.09955	299
825.6012	310
826.10278	313
826.60437	298
827.1059	291
827.60736	297
828.10883	306
828.61023	306
829.11163	311
829.61298	300
830.11432	318
830.61554	293
831.11682	333
831.61798	302
832.11914	313
832.6203	334
833.1214	312
833.62244	314
834.12347	305
834.62445	315
835.12537	332
835.62628	296
836.12714	322
836.62799	330
837.12878	294
837.62952	332
838.13025	300
838.63092	323
839.13153	323
839.63214	314
840.13275	292
840.63324	291
841.13373	326
841.63422	301
842.13464	293
842.63501	322
843.13538	320
843.63568	309
844.13593	295
844.63617	313
845.13635	316
845.63647	313
846.1366	312
846.63672	340
847.13672	329
847.63672	321
848.13672	300
848.6366	295
849.13647	321
849.63635	323
850.13617	324
850.63593	317
851.13568	338
851.63538	325
852.13501	328
852.63464	320
853.13422	304
853.63373	326
854.13324	319
854.63275	316
855.13214	321
855.63153	315
856.13086	293
856.63019	337
857.12946	316
857.62866	334
858.12787	299
858.62701	321
859.12616	323
859.62524	319
860.12427	316
860.62323	308
861.12219	319
861.62109	332
862.12	316
862.61884	303
863.11761	317
863.61639	310
864.11511	298
864.61377	295
865.11243	299
865.61102	321
866.10962	302
866.60809	315
867.10663	303
867.60504	306
868.10345	317
868.60181	316
869.10016	304
869.59839	319
870.09668	322
870.59485	313
871.09302	323
871.59113	314
872.08923	296
872.58728	308
873.08527	304
873.58325	313
874.08118	312
874.57904	314
875.0769	323
875.57465	325
876.07245	328
876.57013	327
877.06781	345
877.56549	325
878.06305	322
878.56061	327
879.05817	311
879.5556	311
880.05304	329
880.55042	318
881.04779	305
881.5451	326
882.04236	319
882.53961	317
883.0368	338
883.53394	329
884.03107	318
884.52808	319
885.02515	322
