Date and Time:                Fri Oct 17 08:24:45.264 2025
Software Version:             4.30.30000.0
Temperature (C):              -90
Model:                        DU971P_UVB
Data Type:                    Counts
Acquisition Mode:             Single Scan
Trigger Mode:                 Internal
Exposure Time (secs):         0.5
Readout Mode:                 Full Vertical Binning
Horizontal binning:           2
Extended Dynamic Range:       off
Horizontally flipped:         false
Vertical Shift Speed (usecs): 9.68
Pixel Readout Rate (MHz):     3
Baseline Clamp:               ON
Clock Amplitude:              Normal
Output Amplifier:             Conventional
Serial Number:                20367
Pre-Amplifier Gain:           4x
Spurious Noise Filter Mode:   No Filter
Photon counted:               false
Data Averaging Filter Mode:   No Filter
SR193i:
Serial Number:                SR-2646
Wavelength (nm):              690
Grating Groove Density (l/mm):300
Grating Blaze:                500nm
Input Side Slit Width (um):   1000



478.32681	288
478.84332	312
479.35983	334
479.87631	332
480.39282	318
480.9093	327
481.42575	317
481.94223	310
482.45868	317
482.97513	348
483.49158	341
484.00803	353
484.52444	400
485.04086	446
485.55728	489
486.07367	487
486.59006	590
487.10645	611
487.62283	671
488.13919	689
488.65555	748
489.17191	860
489.68826	840
490.20459	878
490.72092	978
491.23724	949
491.75354	1087
492.26984	1089
492.78613	1161
493.30243	1230
493.8187	1328
494.33496	1385
494.85123	1366
495.36746	1379
495.8837	1550
496.39993	1527
496.91617	1642
497.43237	1649
497.94858	1768
498.46478	1846
498.98096	1942
499.49713	2010
500.01331	2150
500.52945	2240
501.04562	2436
501.56174	2621
502.07788	2850
502.59399	3026
503.11011	3356
503.62622	3765
504.1423	4045
504.65839	4339
505.17447	5099
505.69052	5634
506.20657	6038
506.72263	6817
507.23865	7460
507.75467	8509
508.27069	9350
508.78668	10234
509.30267	11394
509.81866	12236
510.33463	13397
510.85059	14766
511.36655	15187
511.88248	16486
512.39844	17226
512.91437	17947
513.43024	18310
513.94617	18853
514.46204	19143
514.97791	19654
515.49377	19586
516.00964	19823
516.52551	19762
517.04132	19736
517.55719	19605
518.073	19209
518.58881	18957
519.10461	18495
519.62036	18135
520.13617	17428
520.65192	16867
521.16766	16003
521.68341	15663
522.1991	14702
522.71484	13978
523.23053	12974
523.74622	12231
524.2619	11194
524.77759	9917
525.29327	9118
525.8089	8106
526.32452	7104
526.84015	6381
527.35577	5775
527.8714	5070
528.38696	4503
528.90259	3821
529.41815	3651
529.93372	3319
530.44922	2960
530.96478	2738
531.48029	2479
531.99579	2383
532.51129	2347
533.02679	2281
533.5423	2306
534.05774	2242
534.57318	2253
535.08862	2172
535.60406	2175
536.11945	2097
536.63489	2170
537.15027	2085
537.66565	2024
538.18097	2093
538.69635	1949
539.21167	1998
539.72699	1873
540.24231	1879
540.75763	1775
541.27289	1766
541.78821	1806
542.30347	1655
542.81873	1682
543.33392	1651
543.84918	1592
544.36438	1578
544.87958	1529
545.39478	1489
545.90991	1469
546.42511	1488
546.94025	1491
547.45538	1426
547.97052	1439
548.4856	1442
549.00073	1359
549.51581	1335
550.03088	1395
550.5459	1338
551.06097	1286
551.57599	1235
552.091	1314
552.60602	1332
553.12097	1330
553.63593	1306
554.15094	1262
554.66583	1322
555.18079	1235
555.69568	1215
556.21063	1242
556.72552	1297
557.24036	1198
557.75525	1237
558.27008	1172
558.78491	1172
559.29974	1240
559.81458	1217
560.32935	1163
560.84412	1245
561.35889	1136
561.87366	1135
562.38837	1203
562.90308	1126
563.41779	1150
563.9325	1131
564.44714	1163
564.96179	1138
565.47644	1095
565.99109	1107
566.50574	1059
567.02032	1073
567.53491	1026
568.0495	1088
568.56403	1106
569.07861	1042
569.59314	1051
570.1076	1071
570.62213	991
571.1366	1024
571.65106	1022
572.16553	1020
572.67999	1011
573.1944	946
573.7088	981
574.22321	979
574.73755	1045
575.25195	1002
575.7663	948
576.28058	907
576.79492	945
577.3092	918
577.82349	916
578.33777	909
578.85205	929
579.36627	935
579.88049	875
580.39471	938
580.90887	881
581.42303	903
581.93719	899
582.45135	803
582.96545	839
583.47955	890
583.99365	845
584.50775	864
585.02179	847
585.53583	789
586.04987	854
586.5639	794
587.07788	845
587.59186	788
588.10583	823
588.61975	809
589.13373	805
589.64758	763
590.1615	792
590.67542	799
591.18927	812
591.70306	775
592.21692	817
592.73071	788
593.24451	790
593.7583	734
594.27209	783
594.78583	790
595.29956	779
595.81323	695
596.32697	740
596.84064	697
597.35425	703
597.86792	774
598.38153	690
598.89514	756
599.40875	744
599.9223	682
600.43585	702
600.9494	701
601.46289	686
601.97638	651
602.48987	695
603.00336	683
603.51678	723
604.03021	666
604.54364	657
605.05701	644
605.57043	659
606.08374	669
606.59711	693
607.11041	673
607.62372	626
608.13702	625
608.65027	673
609.16351	635
609.67676	649
610.19	669
610.70319	629
611.21637	598
611.72949	580
612.24268	584
612.75574	586
613.26886	595
613.78192	604
614.29504	630
614.80804	589
615.32111	637
615.83411	615
616.34711	597
616.86005	594
617.37299	564
617.88593	605
618.39886	603
618.91174	567
619.42462	582
619.9375	572
620.45032	515
620.96313	522
621.47595	549
621.98871	586
622.50146	539
623.01422	536
623.52692	555
624.03967	555
624.55231	576
625.065	529
625.57764	548
626.09027	530
626.60284	550
627.11542	518
627.62799	557
628.14056	552
628.65308	512
629.16559	541
629.6781	533
630.19055	530
630.703	533
631.21539	519
631.72784	521
632.24017	522
632.75256	508
633.26489	490
633.77722	502
634.28955	508
634.80182	496
635.31409	526
635.82635	513
636.33856	506
636.85077	487
637.36292	482
637.87512	495
638.38721	476
638.89935	465
639.41144	469
639.92352	472
640.43561	499
640.94763	470
641.45966	459
641.97162	439
642.48358	465
642.99554	500
643.50751	476
644.01941	454
644.53131	445
645.04315	458
645.55499	449
646.06683	465
646.57861	429
647.09045	430
647.60217	413
648.11395	448
648.62567	428
649.13733	455
649.64905	440
650.16064	439
650.6723	444
651.1839	446
651.6955	434
652.20709	441
652.71863	438
653.23016	425
653.74164	439
654.25311	427
654.76459	430
655.276	428
655.78741	418
656.29883	426
656.81018	468
657.32153	405
657.83289	416
658.34418	396
658.85547	425
659.3667	413
659.87793	422
660.38916	396
660.90033	422
661.4115	407
661.92267	394
662.43378	400
662.94489	402
663.45593	388
663.96698	410
664.47803	383
664.98907	417
665.50006	414
666.01099	417
666.52191	395
667.03284	406
667.54376	376
668.05463	410
668.56549	413
669.07629	383
669.5871	406
670.0979	400
670.60864	371
671.11938	378
671.63007	397
672.14075	390
672.65143	383
673.16205	382
673.67267	399
674.18329	375
674.69385	401
675.20435	392
675.7149	412
676.2254	403
676.73584	398
677.24628	343
677.75671	397
678.26715	357
678.77753	369
679.28784	363
679.79822	373
680.30847	369
680.81879	368
681.32904	366
681.83923	373
682.34949	387
682.85968	370
683.36981	386
683.87994	372
684.39008	376
684.90015	363
685.41022	367
685.92023	364
686.43024	348
686.94025	400
687.4502	372
687.96014	380
688.47003	384
688.97992	334
689.48981	365
689.99963	340
690.50946	353
691.01923	358
691.52899	347
692.03876	368
692.54846	349
693.05817	356
693.56781	337
694.07745	367
694.58704	386
695.09662	371
695.6062	374
696.11572	341
696.62524	366
697.1347	346
697.64417	345
698.15363	342
698.66302	346
699.17242	334
699.68176	330
700.1911	348
700.70044	363
701.20972	337
701.71893	329
702.22815	348
702.73737	343
703.24652	342
703.75568	350
704.26483	359
704.77393	374
705.28302	346
705.79205	364
706.30103	340
706.81006	339
707.31903	350
707.82794	338
708.33685	341
708.84576	367
709.35461	326
709.86346	324
710.37225	365
710.88104	362
711.38977	343
711.8985	347
712.40723	312
712.91589	328
713.42456	342
713.93317	310
714.44177	351
714.95032	372
715.45886	317
715.96735	330
716.47583	332
716.98431	345
717.49274	344
718.00116	341
718.50952	349
719.01788	333
719.52618	321
720.03448	346
720.54272	323
721.05096	341
721.5592	340
722.06738	335
722.57556	339
723.08368	348
723.59174	326
724.09985	326
724.60791	321
725.11591	323
725.6239	351
726.13184	341
726.63977	323
727.14771	328
727.65558	308
728.16339	307
728.67126	316
729.17902	342
729.68683	315
730.19452	332
730.70227	351
731.2099	328
731.71759	346
732.22522	319
732.73279	321
733.24036	325
733.74792	351
734.25543	340
734.76288	328
735.27032	329
735.77777	322
736.28516	337
736.79254	332
737.29987	321
737.80719	303
738.31445	346
738.82172	328
739.32892	310
739.83612	334
740.34326	326
740.8504	304
741.35748	328
741.86456	295
742.37164	332
742.87866	329
743.38562	313
743.89258	302
744.39954	355
744.90643	320
745.41327	306
745.9201	326
746.42694	344
746.93372	321
747.44049	322
747.9472	317
748.45386	325
748.96057	314
749.46716	303
749.97375	319
750.48035	318
750.98688	346
751.49341	340
751.99988	304
752.50635	343
753.01276	335
753.51917	316
754.02551	339
754.53186	328
755.03815	323
755.54443	315
756.05066	324
756.55688	315
757.06305	312
757.56921	347
758.07532	316
758.58142	327
759.08746	331
759.59351	312
760.09949	298
760.60547	315
761.11139	329
761.61725	335
762.12317	315
762.62897	327
763.13483	309
763.64056	340
764.1463	328
764.65204	330
765.15771	302
765.66339	319
766.16901	308
766.67462	331
767.18018	321
767.68567	333
768.19116	324
768.69666	312
769.20209	309
769.70746	302
770.21283	306
770.7182	308
771.22351	318
771.72876	306
772.23401	307
772.73926	324
773.24445	311
773.74957	326
774.2547	301
774.75977	331
775.26483	318
775.76984	306
776.27484	310
776.77979	313
777.28473	331
777.78961	318
778.29449	333
778.79932	303
779.30408	322
779.80884	331
780.3136	323
780.8183	311
781.32294	333
781.82758	307
782.33215	301
782.83673	322
783.34131	320
783.84576	324
784.35028	305
784.85468	306
785.35907	322
785.86346	319
786.3678	296
786.87213	289
787.3764	297
787.88062	335
788.38483	305
788.88898	331
789.39313	324
789.89722	317
790.40131	314
790.90533	322
791.40936	332
791.91333	300
792.4173	320
792.9212	329
793.42505	325
793.92889	316
794.43268	290
794.93646	326
795.44019	330
795.94391	328
796.44757	307
796.95123	318
797.45483	325
797.95837	315
798.46191	298
798.96539	328
799.46887	323
799.97235	329
800.47571	301
800.97906	307
801.48242	315
801.98572	315
802.48895	301
802.99219	292
803.49536	312
803.99854	304
804.50165	331
805.00476	334
805.50781	317
806.01086	314
806.51379	326
807.01678	311
807.51971	305
808.02258	334
808.52539	322
809.02826	312
809.53101	319
810.03375	307
810.53644	304
811.03912	305
811.54175	306
812.04437	312
812.54694	295
813.04944	302
813.55194	312
814.05444	331
814.55682	303
815.05927	296
815.56158	329
816.0639	307
816.56622	333
817.06842	291
817.57068	323
818.07281	298
818.57495	320
819.07709	307
819.57916	330
820.08118	318
820.58319	311
821.08514	314
821.5871	304
822.08899	318
822.59082	309
823.09265	333
823.59442	315
824.09619	327
824.5979	321
825.09955	303
825.6012	346
826.10278	315
826.60437	333
827.1059	321
827.60736	297
828.10883	314
828.61023	331
829.11163	306
829.61298	293
830.11432	317
830.61554	331
831.11682	301
831.61798	305
832.11914	305
832.6203	323
833.1214	313
833.62244	329
834.12347	314
834.62445	330
835.12537	305
835.62628	302
836.12714	309
836.62799	314
837.12878	318
837.62952	334
838.13025	322
838.63092	296
839.13153	309
839.63214	320
840.13275	288
840.63324	293
841.13373	303
841.63422	320
842.13464	331
842.63501	309
843.13538	296
843.63568	333
844.13593	291
844.63617	302
845.13635	300
845.63647	310
846.1366	317
846.63672	323
847.13672	335
847.63672	323
848.13672	325
848.6366	311
849.13647	311
849.63635	319
850.13617	313
850.63593	300
851.13568	287
851.63538	305
852.13501	309
852.63464	323
853.13422	318
853.63373	333
854.13324	330
854.63275	329
855.13214	302
855.63153	335
856.13086	295
856.63019	313
857.12946	308
857.62866	334
858.12787	310
858.62701	319
859.12616	295
859.62524	320
860.12427	305
860.62323	331
861.12219	309
861.62109	328
862.12	305
862.61884	310
863.11761	316
863.61639	319
864.11511	331
864.61377	332
865.11243	306
865.61102	321
866.10962	317
866.60809	339
867.10663	305
867.60504	312
868.10345	336
868.60181	311
869.10016	328
869.59839	309
870.09668	307
870.59485	315
871.09302	329
871.59113	345
872.08923	292
872.58728	331
873.08527	320
873.58325	315
874.08118	343
874.57904	340
875.0769	326
875.57465	331
876.07245	333
876.57013	325
877.06781	332
877.56549	322
878.06305	341
878.56061	306
879.05817	337
879.5556	343
880.05304	304
880.55042	332
881.04779	306
881.5451	331
882.04236	332
882.53961	312
883.0368	307
883.53394	327
884.03107	295
884.52808	313
885.02515	306
