Date and Time:                Wed Oct 22 09:20:09.826 2025
Software Version:             4.30.30000.0
Unstabilized Temperature (C): -89.631
Model:                        DU971P_UVB
Data Type:                    Counts
Acquisition Mode:             Single Scan
Trigger Mode:                 Internal
Exposure Time (secs):         30
Readout Mode:                 Full Vertical Binning
Horizontal binning:           2
Extended Dynamic Range:       off
Horizontally flipped:         false
Vertical Shift Speed (usecs): 9.68
Pixel Readout Rate (MHz):     3
Baseline Clamp:               ON
Clock Amplitude:              Normal
Output Amplifier:             Conventional
Serial Number:                20367
Pre-Amplifier Gain:           4x
Spurious Noise Filter Mode:   No Filter
Photon counted:               false
Data Averaging Filter Mode:   No Filter
SR193i:
Serial Number:                SR-2646
Wavelength (nm):              690
Grating Groove Density (l/mm):300
Grating Blaze:                500nm
Input Side Slit Width (um):   1000



478.32681	245
478.84332	325
479.35983	313
479.87631	339
480.39282	314
480.9093	314
481.42575	341
481.94223	321
482.45868	301
482.97513	331
483.49158	302
484.00803	323
484.52444	308
485.04086	309
485.55728	323
486.07367	332
486.59006	308
487.10645	325
487.62283	318
488.13919	310
488.65555	327
489.17191	328
489.68826	306
490.20459	325
490.72092	293
491.23724	316
491.75354	313
492.26984	296
492.78613	310
493.30243	316
493.8187	335
494.33496	335
494.85123	321
495.36746	309
495.8837	318
496.39993	309
496.91617	326
497.43237	317
497.94858	309
498.46478	318
498.98096	310
499.49713	303
500.01331	318
500.52945	329
501.04562	332
501.56174	315
502.07788	334
502.59399	314
503.11011	316
503.62622	319
504.1423	310
504.65839	328
505.17447	319
505.69052	316
506.20657	303
506.72263	322
507.23865	314
507.75467	322
508.27069	333
508.78668	309
509.30267	308
509.81866	315
510.33463	313
510.85059	305
511.36655	322
511.88248	322
512.39844	314
512.91437	315
513.43024	325
513.94617	298
514.46204	336
514.97791	335
515.49377	345
516.00964	319
516.52551	318
517.04132	315
517.55719	302
518.073	311
518.58881	297
519.10461	309
519.62036	314
520.13617	321
520.65192	317
521.16766	316
521.68341	307
522.1991	316
522.71484	311
523.23053	333
523.74622	310
524.2619	320
524.77759	303
525.29327	306
525.8089	309
526.32452	318
526.84015	317
527.35577	318
527.8714	309
528.38696	332
528.90259	322
529.41815	314
529.93372	306
530.44922	323
530.96478	296
531.48029	309
531.99579	309
532.51129	323
533.02679	308
533.5423	306
534.05774	304
534.57318	329
535.08862	308
535.60406	297
536.11945	317
536.63489	327
537.15027	308
537.66565	342
538.18097	313
538.69635	324
539.21167	316
539.72699	299
540.24231	306
540.75763	309
541.27289	327
541.78821	331
542.30347	310
542.81873	297
543.33392	325
543.84918	310
544.36438	313
544.87958	302
545.39478	327
545.90991	306
546.42511	311
546.94025	318
547.45538	325
547.97052	333
548.4856	303
549.00073	303
549.51581	321
550.03088	313
550.5459	327
551.06097	1438
551.57599	1152
552.091	348
552.60602	321
553.12097	331
553.63593	293
554.15094	324
554.66583	306
555.18079	332
555.69568	319
556.21063	320
556.72552	304
557.24036	290
557.75525	313
558.27008	308
558.78491	316
559.29974	328
559.81458	304
560.32935	304
560.84412	317
561.35889	319
561.87366	315
562.38837	294
562.90308	333
563.41779	326
563.9325	302
564.44714	307
564.96179	310
565.47644	305
565.99109	347
566.50574	327
567.02032	333
567.53491	340
568.0495	327
568.56403	307
569.07861	309
569.59314	334
570.1076	308
570.62213	325
571.1366	328
571.65106	321
572.16553	324
572.67999	307
573.1944	321
573.7088	312
574.22321	327
574.73755	311
575.25195	334
575.7663	314
576.28058	330
576.79492	324
577.3092	323
577.82349	321
578.33777	338
578.85205	283
579.36627	317
579.88049	321
580.39471	298
580.90887	325
581.42303	304
581.93719	318
582.45135	318
582.96545	330
583.47955	316
583.99365	313
584.50775	321
585.02179	319
585.53583	327
586.04987	326
586.5639	315
587.07788	311
587.59186	306
588.10583	336
588.61975	336
589.13373	309
589.64758	301
590.1615	329
590.67542	320
591.18927	300
591.70306	316
592.21692	314
592.73071	317
593.24451	315
593.7583	309
594.27209	306
594.78583	338
595.29956	329
595.81323	314
596.32697	303
596.84064	326
597.35425	316
597.86792	332
598.38153	298
598.89514	319
599.40875	314
599.9223	305
600.43585	307
600.9494	316
601.46289	319
601.97638	321
602.48987	329
603.00336	297
603.51678	330
604.03021	319
604.54364	297
605.05701	299
605.57043	335
606.08374	314
606.59711	291
607.11041	313
607.62372	315
608.13702	281
608.65027	316
609.16351	316
609.67676	311
610.19	325
610.70319	307
611.21637	311
611.72949	312
612.24268	324
612.75574	309
613.26886	311
613.78192	321
614.29504	345
614.80804	307
615.32111	303
615.83411	296
616.34711	332
616.86005	304
617.37299	319
617.88593	309
618.39886	294
618.91174	328
619.42462	299
619.9375	301
620.45032	309
620.96313	317
621.47595	314
621.98871	324
622.50146	304
623.01422	304
623.52692	294
624.03967	312
624.55231	327
625.065	301
625.57764	317
626.09027	333
626.60284	330
627.11542	305
627.62799	329
628.14056	328
628.65308	319
629.16559	321
629.6781	316
630.19055	304
630.703	313
631.21539	312
631.72784	298
632.24017	328
632.75256	312
633.26489	322
633.77722	336
634.28955	275
634.80182	284
635.31409	309
635.82635	312
636.33856	337
636.85077	314
637.36292	302
637.87512	316
638.38721	326
638.89935	339
639.41144	307
639.92352	304
640.43561	312
640.94763	321
641.45966	321
641.97162	334
642.48358	302
642.99554	311
643.50751	321
644.01941	328
644.53131	323
645.04315	310
645.55499	307
646.06683	336
646.57861	303
647.09045	318
647.60217	301
648.11395	307
648.62567	319
649.13733	311
649.64905	301
650.16064	311
650.6723	314
651.1839	323
651.6955	303
652.20709	304
652.71863	320
653.23016	303
653.74164	335
654.25311	280
654.76459	320
655.276	309
655.78741	326
656.29883	314
656.81018	315
657.32153	328
657.83289	325
658.34418	319
658.85547	322
659.3667	311
659.87793	326
660.38916	337
660.90033	317
661.4115	328
661.92267	298
662.43378	300
662.94489	336
663.45593	321
663.96698	309
664.47803	291
664.98907	307
665.50006	332
666.01099	313
666.52191	316
667.03284	306
667.54376	322
668.05463	327
668.56549	321
669.07629	325
669.5871	317
670.0979	301
670.60864	324
671.11938	328
671.63007	328
672.14075	315
672.65143	318
673.16205	302
673.67267	328
674.18329	344
674.69385	312
675.20435	327
675.7149	320
676.2254	311
676.73584	315
677.24628	320
677.75671	321
678.26715	298
678.77753	303
679.28784	304
679.79822	326
680.30847	303
680.81879	275
681.32904	311
681.83923	320
682.34949	300
682.85968	326
683.36981	328
683.87994	327
684.39008	308
684.90015	318
685.41022	320
685.92023	326
686.43024	305
686.94025	322
687.4502	300
687.96014	322
688.47003	317
688.97992	311
689.48981	298
689.99963	315
690.50946	306
691.01923	307
691.52899	313
692.03876	310
692.54846	315
693.05817	291
693.56781	319
694.07745	303
694.58704	325
695.09662	322
695.6062	329
696.11572	308
696.62524	323
697.1347	316
697.64417	324
698.15363	332
698.66302	333
699.17242	304
699.68176	308
700.1911	319
700.70044	316
701.20972	322
701.71893	319
702.22815	313
702.73737	333
703.24652	323
703.75568	304
704.26483	297
704.77393	316
705.28302	307
705.79205	322
706.30103	312
706.81006	330
707.31903	322
707.82794	318
708.33685	299
708.84576	301
709.35461	316
709.86346	328
710.37225	336
710.88104	317
711.38977	303
711.8985	322
712.40723	316
712.91589	311
713.42456	327
713.93317	313
714.44177	308
714.95032	317
715.45886	297
715.96735	305
716.47583	328
716.98431	302
717.49274	314
718.00116	321
718.50952	325
719.01788	308
719.52618	313
720.03448	327
720.54272	314
721.05096	303
721.5592	322
722.06738	330
722.57556	322
723.08368	304
723.59174	324
724.09985	333
724.60791	300
725.11591	323
725.6239	326
726.13184	317
726.63977	339
727.14771	322
727.65558	317
728.16339	308
728.67126	312
729.17902	309
729.68683	297
730.19452	321
730.70227	294
731.2099	320
731.71759	305
732.22522	319
732.73279	319
733.24036	309
733.74792	326
734.25543	301
734.76288	328
735.27032	317
735.77777	338
736.28516	323
736.79254	329
737.29987	316
737.80719	305
738.31445	297
738.82172	299
739.32892	347
739.83612	277
740.34326	326
740.8504	314
741.35748	328
741.86456	328
742.37164	343
742.87866	314
743.38562	301
743.89258	316
744.39954	305
744.90643	308
745.41327	326
745.9201	335
746.42694	303
746.93372	312
747.44049	287
747.9472	307
748.45386	311
748.96057	304
749.46716	298
749.97375	332
750.48035	316
750.98688	313
751.49341	338
751.99988	300
752.50635	305
753.01276	336
753.51917	296
754.02551	316
754.53186	303
755.03815	296
755.54443	301
756.05066	326
756.55688	312
757.06305	331
757.56921	295
758.07532	310
758.58142	305
759.08746	304
759.59351	311
760.09949	318
760.60547	316
761.11139	328
761.61725	312
762.12317	310
762.62897	298
763.13483	321
763.64056	295
764.1463	297
764.65204	308
765.15771	312
765.66339	313
766.16901	321
766.67462	318
767.18018	304
767.68567	334
768.19116	301
768.69666	329
769.20209	302
769.70746	305
770.21283	303
770.7182	313
771.22351	309
771.72876	322
772.23401	318
772.73926	297
773.24445	315
773.74957	316
774.2547	321
774.75977	296
775.26483	311
775.76984	317
776.27484	305
776.77979	322
777.28473	310
777.78961	307
778.29449	297
778.79932	305
779.30408	327
779.80884	324
780.3136	313
780.8183	314
781.32294	327
781.82758	317
782.33215	295
782.83673	312
783.34131	330
783.84576	317
784.35028	314
784.85468	330
785.35907	307
785.86346	316
786.3678	339
786.87213	302
787.3764	319
787.88062	309
788.38483	315
788.88898	314
789.39313	313
789.89722	333
790.40131	323
790.90533	303
791.40936	313
791.91333	314
792.4173	311
792.9212	301
793.42505	298
793.92889	301
794.43268	314
794.93646	307
795.44019	318
795.94391	330
796.44757	303
796.95123	304
797.45483	322
797.95837	320
798.46191	318
798.96539	331
799.46887	316
799.97235	323
800.47571	331
800.97906	330
801.48242	307
801.98572	309
802.48895	313
802.99219	313
803.49536	312
803.99854	316
804.50165	328
805.00476	328
805.50781	314
806.01086	324
806.51379	333
807.01678	332
807.51971	306
808.02258	329
808.52539	305
809.02826	315
809.53101	313
810.03375	305
810.53644	306
811.03912	293
811.54175	316
812.04437	309
812.54694	314
813.04944	311
813.55194	314
814.05444	327
814.55682	341
815.05927	326
815.56158	308
816.0639	323
816.56622	313
817.06842	303
817.57068	347
818.07281	308
818.57495	308
819.07709	317
819.57916	308
820.08118	323
820.58319	306
821.08514	330
821.5871	314
822.08899	302
822.59082	326
823.09265	316
823.59442	310
824.09619	307
824.5979	303
825.09955	329
825.6012	321
826.10278	329
826.60437	306
827.1059	309
827.60736	325
828.10883	309
828.61023	330
829.11163	318
829.61298	329
830.11432	355
830.61554	306
831.11682	322
831.61798	316
832.11914	323
832.6203	321
833.1214	339
833.62244	336
834.12347	321
834.62445	324
835.12537	322
835.62628	302
836.12714	321
836.62799	312
837.12878	305
837.62952	313
838.13025	319
838.63092	330
839.13153	297
839.63214	297
840.13275	320
840.63324	326
841.13373	313
841.63422	301
842.13464	305
842.63501	313
843.13538	309
843.63568	319
844.13593	320
844.63617	341
845.13635	299
845.63647	305
846.1366	315
846.63672	317
847.13672	307
847.63672	332
848.13672	341
848.6366	319
849.13647	300
849.63635	327
850.13617	313
850.63593	307
851.13568	299
851.63538	317
852.13501	326
852.63464	298
853.13422	317
853.63373	336
854.13324	319
854.63275	312
855.13214	310
855.63153	309
856.13086	321
856.63019	346
857.12946	325
857.62866	313
858.12787	318
858.62701	325
859.12616	311
859.62524	320
860.12427	309
860.62323	320
861.12219	306
861.62109	317
862.12	304
862.61884	308
863.11761	341
863.61639	346
864.11511	312
864.61377	329
865.11243	334
865.61102	304
866.10962	313
866.60809	321
867.10663	324
867.60504	321
868.10345	295
868.60181	315
869.10016	321
869.59839	330
870.09668	321
870.59485	310
871.09302	304
871.59113	308
872.08923	301
872.58728	326
873.08527	330
873.58325	314
874.08118	320
874.57904	344
875.0769	328
875.57465	311
876.07245	322
876.57013	309
877.06781	329
877.56549	327
878.06305	335
878.56061	322
879.05817	319
879.5556	320
880.05304	303
880.55042	296
881.04779	304
881.5451	335
882.04236	288
882.53961	310
883.0368	319
883.53394	333
884.03107	326
884.52808	337
885.02515	327
