Date and Time:                Wed Oct 22 09:14:27.353 2025
Software Version:             4.30.30000.0
Unstabilized Temperature (C): -87.035
Model:                        DU971P_UVB
Data Type:                    Counts
Acquisition Mode:             Single Scan
Trigger Mode:                 Internal
Exposure Time (secs):         30
Readout Mode:                 Full Vertical Binning
Horizontal binning:           2
Extended Dynamic Range:       off
Horizontally flipped:         false
Vertical Shift Speed (usecs): 9.68
Pixel Readout Rate (MHz):     3
Baseline Clamp:               ON
Clock Amplitude:              Normal
Output Amplifier:             Conventional
Serial Number:                20367
Pre-Amplifier Gain:           4x
Spurious Noise Filter Mode:   No Filter
Photon counted:               false
Data Averaging Filter Mode:   No Filter
SR193i:
Serial Number:                SR-2646
Wavelength (nm):              690
Grating Groove Density (l/mm):300
Grating Blaze:                500nm
Input Side Slit Width (um):   1000



478.32681	280
478.84332	296
479.35983	327
479.87631	327
480.39282	335
480.9093	316
481.42575	314
481.94223	337
482.45868	325
482.97513	311
483.49158	336
484.00803	326
484.52444	337
485.04086	323
485.55728	322
486.07367	345
486.59006	314
487.10645	345
487.62283	345
488.13919	336
488.65555	318
489.17191	315
489.68826	344
490.20459	314
490.72092	308
491.23724	319
491.75354	312
492.26984	319
492.78613	311
493.30243	333
493.8187	320
494.33496	319
494.85123	347
495.36746	319
495.8837	318
496.39993	318
496.91617	300
497.43237	327
497.94858	305
498.46478	318
498.98096	323
499.49713	325
500.01331	319
500.52945	347
501.04562	327
501.56174	315
502.07788	325
502.59399	331
503.11011	307
503.62622	322
504.1423	337
504.65839	309
505.17447	316
505.69052	328
506.20657	296
506.72263	308
507.23865	311
507.75467	322
508.27069	321
508.78668	319
509.30267	303
509.81866	306
510.33463	326
510.85059	330
511.36655	314
511.88248	324
512.39844	314
512.91437	333
513.43024	348
513.94617	329
514.46204	312
514.97791	331
515.49377	330
516.00964	309
516.52551	322
517.04132	330
517.55719	339
518.073	326
518.58881	313
519.10461	315
519.62036	328
520.13617	318
520.65192	322
521.16766	300
521.68341	312
522.1991	316
522.71484	323
523.23053	320
523.74622	323
524.2619	310
524.77759	306
525.29327	321
525.8089	328
526.32452	298
526.84015	310
527.35577	342
527.8714	314
528.38696	319
528.90259	325
529.41815	303
529.93372	326
530.44922	329
530.96478	320
531.48029	312
531.99579	327
532.51129	320
533.02679	321
533.5423	315
534.05774	326
534.57318	338
535.08862	317
535.60406	339
536.11945	307
536.63489	328
537.15027	326
537.66565	302
538.18097	333
538.69635	295
539.21167	325
539.72699	303
540.24231	332
540.75763	344
541.27289	332
541.78821	311
542.30347	322
542.81873	305
543.33392	327
543.84918	351
544.36438	333
544.87958	305
545.39478	325
545.90991	322
546.42511	313
546.94025	320
547.45538	329
547.97052	323
548.4856	343
549.00073	315
549.51581	326
550.03088	306
550.5459	324
551.06097	322
551.57599	320
552.091	327
552.60602	320
553.12097	330
553.63593	321
554.15094	303
554.66583	313
555.18079	329
555.69568	345
556.21063	309
556.72552	309
557.24036	313
557.75525	323
558.27008	312
558.78491	288
559.29974	319
559.81458	317
560.32935	313
560.84412	338
561.35889	308
561.87366	325
562.38837	306
562.90308	326
563.41779	322
563.9325	322
564.44714	315
564.96179	335
565.47644	312
565.99109	337
566.50574	322
567.02032	315
567.53491	293
568.0495	320
568.56403	335
569.07861	325
569.59314	331
570.1076	331
570.62213	309
571.1366	319
571.65106	309
572.16553	316
572.67999	325
573.1944	308
573.7088	327
574.22321	312
574.73755	310
575.25195	335
575.7663	337
576.28058	327
576.79492	307
577.3092	334
577.82349	319
578.33777	301
578.85205	321
579.36627	318
579.88049	339
580.39471	326
580.90887	307
581.42303	327
581.93719	323
582.45135	322
582.96545	317
583.47955	306
583.99365	334
584.50775	346
585.02179	335
585.53583	323
586.04987	298
586.5639	309
587.07788	313
587.59186	292
588.10583	328
588.61975	324
589.13373	328
589.64758	299
590.1615	341
590.67542	328
591.18927	322
591.70306	325
592.21692	315
592.73071	337
593.24451	313
593.7583	331
594.27209	293
594.78583	327
595.29956	320
595.81323	330
596.32697	323
596.84064	314
597.35425	299
597.86792	311
598.38153	327
598.89514	323
599.40875	326
599.9223	325
600.43585	322
600.9494	300
601.46289	310
601.97638	332
602.48987	325
603.00336	325
603.51678	316
604.03021	299
604.54364	311
605.05701	331
605.57043	317
606.08374	344
606.59711	332
607.11041	324
607.62372	332
608.13702	314
608.65027	324
609.16351	322
609.67676	334
610.19	310
610.70319	309
611.21637	330
611.72949	304
612.24268	297
612.75574	320
613.26886	306
613.78192	309
614.29504	331
614.80804	337
615.32111	326
615.83411	328
616.34711	320
616.86005	321
617.37299	318
617.88593	316
618.39886	327
618.91174	318
619.42462	319
619.9375	316
620.45032	320
620.96313	315
621.47595	337
621.98871	320
622.50146	326
623.01422	336
623.52692	312
624.03967	304
624.55231	329
625.065	312
625.57764	332
626.09027	322
626.60284	307
627.11542	280
627.62799	298
628.14056	330
628.65308	309
629.16559	300
629.6781	334
630.19055	313
630.703	319
631.21539	319
631.72784	326
632.24017	325
632.75256	320
633.26489	313
633.77722	313
634.28955	331
634.80182	299
635.31409	340
635.82635	314
636.33856	332
636.85077	321
637.36292	359
637.87512	324
638.38721	312
638.89935	350
639.41144	321
639.92352	307
640.43561	316
640.94763	305
641.45966	313
641.97162	299
642.48358	324
642.99554	317
643.50751	325
644.01941	323
644.53131	304
645.04315	336
645.55499	320
646.06683	316
646.57861	336
647.09045	322
647.60217	313
648.11395	324
648.62567	309
649.13733	305
649.64905	328
650.16064	326
650.6723	322
651.1839	337
651.6955	313
652.20709	323
652.71863	332
653.23016	311
653.74164	326
654.25311	346
654.76459	338
655.276	311
655.78741	323
656.29883	325
656.81018	329
657.32153	333
657.83289	339
658.34418	316
658.85547	311
659.3667	297
659.87793	316
660.38916	320
660.90033	309
661.4115	331
661.92267	320
662.43378	313
662.94489	314
663.45593	326
663.96698	330
664.47803	301
664.98907	304
665.50006	320
666.01099	321
666.52191	313
667.03284	324
667.54376	314
668.05463	326
668.56549	325
669.07629	305
669.5871	329
670.0979	314
670.60864	326
671.11938	302
671.63007	312
672.14075	291
672.65143	327
673.16205	314
673.67267	313
674.18329	334
674.69385	314
675.20435	303
675.7149	318
676.2254	307
676.73584	311
677.24628	302
677.75671	331
678.26715	323
678.77753	327
679.28784	338
679.79822	300
680.30847	313
680.81879	310
681.32904	293
681.83923	307
682.34949	327
682.85968	313
683.36981	311
683.87994	291
684.39008	319
684.90015	317
685.41022	322
685.92023	307
686.43024	294
686.94025	308
687.4502	320
687.96014	335
688.47003	315
688.97992	296
689.48981	317
689.99963	346
690.50946	323
691.01923	325
691.52899	315
692.03876	318
692.54846	314
693.05817	314
693.56781	304
694.07745	327
694.58704	319
695.09662	307
695.6062	311
696.11572	327
696.62524	329
697.1347	322
697.64417	294
698.15363	305
698.66302	324
699.17242	307
699.68176	307
700.1911	314
700.70044	322
701.20972	308
701.71893	310
702.22815	328
702.73737	316
703.24652	321
703.75568	334
704.26483	318
704.77393	318
705.28302	336
705.79205	298
706.30103	327
706.81006	330
707.31903	304
707.82794	336
708.33685	302
708.84576	321
709.35461	312
709.86346	323
710.37225	307
710.88104	307
711.38977	318
711.8985	326
712.40723	300
712.91589	321
713.42456	323
713.93317	330
714.44177	329
714.95032	335
715.45886	326
715.96735	289
716.47583	323
716.98431	287
717.49274	301
718.00116	330
718.50952	321
719.01788	307
719.52618	298
720.03448	348
720.54272	323
721.05096	290
721.5592	300
722.06738	323
722.57556	331
723.08368	324
723.59174	299
724.09985	341
724.60791	329
725.11591	306
725.6239	294
726.13184	326
726.63977	292
727.14771	293
727.65558	307
728.16339	319
728.67126	326
729.17902	328
729.68683	328
730.19452	340
730.70227	331
731.2099	315
731.71759	295
732.22522	322
732.73279	326
733.24036	317
733.74792	321
734.25543	328
734.76288	321
735.27032	334
735.77777	352
736.28516	316
736.79254	309
737.29987	304
737.80719	324
738.31445	311
738.82172	334
739.32892	328
739.83612	321
740.34326	314
740.8504	310
741.35748	308
741.86456	327
742.37164	313
742.87866	329
743.38562	305
743.89258	291
744.39954	321
744.90643	307
745.41327	324
745.9201	309
746.42694	327
746.93372	316
747.44049	308
747.9472	306
748.45386	316
748.96057	322
749.46716	319
749.97375	302
750.48035	318
750.98688	321
751.49341	331
751.99988	324
752.50635	296
753.01276	323
753.51917	310
754.02551	305
754.53186	317
755.03815	333
755.54443	292
756.05066	324
756.55688	308
757.06305	328
757.56921	320
758.07532	310
758.58142	319
759.08746	344
759.59351	319
760.09949	327
760.60547	326
761.11139	326
761.61725	316
762.12317	322
762.62897	343
763.13483	300
763.64056	338
764.1463	319
764.65204	329
765.15771	298
765.66339	321
766.16901	305
766.67462	319
767.18018	327
767.68567	333
768.19116	311
768.69666	342
769.20209	305
769.70746	326
770.21283	312
770.7182	304
771.22351	329
771.72876	317
772.23401	304
772.73926	324
773.24445	314
773.74957	315
774.2547	333
774.75977	304
775.26483	327
775.76984	329
776.27484	318
776.77979	311
777.28473	318
777.78961	312
778.29449	327
778.79932	318
779.30408	331
779.80884	311
780.3136	320
780.8183	300
781.32294	323
781.82758	328
782.33215	320
782.83673	321
783.34131	321
783.84576	316
784.35028	321
784.85468	308
785.35907	317
785.86346	316
786.3678	302
786.87213	308
787.3764	316
787.88062	294
788.38483	303
788.88898	339
789.39313	325
789.89722	324
790.40131	334
790.90533	323
791.40936	327
791.91333	310
792.4173	311
792.9212	315
793.42505	319
793.92889	324
794.43268	314
794.93646	308
795.44019	313
795.94391	311
796.44757	326
796.95123	314
797.45483	321
797.95837	328
798.46191	315
798.96539	324
799.46887	337
799.97235	315
800.47571	313
800.97906	304
801.48242	306
801.98572	310
802.48895	320
802.99219	309
803.49536	310
803.99854	305
804.50165	333
805.00476	316
805.50781	309
806.01086	302
806.51379	304
807.01678	301
807.51971	321
808.02258	316
808.52539	335
809.02826	328
809.53101	331
810.03375	315
810.53644	309
811.03912	309
811.54175	314
812.04437	311
812.54694	305
813.04944	325
813.55194	291
814.05444	314
814.55682	321
815.05927	310
815.56158	306
816.0639	310
816.56622	313
817.06842	310
817.57068	315
818.07281	305
818.57495	333
819.07709	335
819.57916	288
820.08118	304
820.58319	307
821.08514	352
821.5871	331
822.08899	292
822.59082	319
823.09265	331
823.59442	279
824.09619	315
824.5979	306
825.09955	336
825.6012	318
826.10278	301
826.60437	325
827.1059	328
827.60736	285
828.10883	312
828.61023	329
829.11163	311
829.61298	310
830.11432	295
830.61554	315
831.11682	302
831.61798	322
832.11914	315
832.6203	332
833.1214	286
833.62244	339
834.12347	331
834.62445	329
835.12537	325
835.62628	301
836.12714	346
836.62799	340
837.12878	321
837.62952	326
838.13025	315
838.63092	304
839.13153	323
839.63214	336
840.13275	312
840.63324	304
841.13373	298
841.63422	318
842.13464	322
842.63501	318
843.13538	325
843.63568	322
844.13593	315
844.63617	299
845.13635	308
845.63647	317
846.1366	299
846.63672	306
847.13672	310
847.63672	338
848.13672	321
848.6366	321
849.13647	307
849.63635	306
850.13617	326
850.63593	317
851.13568	304
851.63538	333
852.13501	307
852.63464	342
853.13422	328
853.63373	326
854.13324	299
854.63275	314
855.13214	294
855.63153	309
856.13086	296
856.63019	346
857.12946	309
857.62866	330
858.12787	318
858.62701	319
859.12616	315
859.62524	333
860.12427	316
860.62323	327
861.12219	308
861.62109	313
862.12	310
862.61884	313
863.11761	323
863.61639	320
864.11511	311
864.61377	318
865.11243	344
865.61102	322
866.10962	305
866.60809	319
867.10663	317
867.60504	326
868.10345	315
868.60181	317
869.10016	334
869.59839	309
870.09668	297
870.59485	306
871.09302	281
871.59113	300
872.08923	319
872.58728	342
873.08527	310
873.58325	304
874.08118	327
874.57904	328
875.0769	311
875.57465	314
876.07245	314
876.57013	316
877.06781	332
877.56549	305
878.06305	338
878.56061	314
879.05817	320
879.5556	309
880.05304	329
880.55042	309
881.04779	337
881.5451	321
882.04236	305
882.53961	305
883.0368	307
883.53394	306
884.03107	307
884.52808	309
885.02515	321
