Date and Time:                Wed Oct 22 09:16:59.478 2025
Software Version:             4.30.30000.0
Unstabilized Temperature (C): -88.982
Model:                        DU971P_UVB
Data Type:                    Counts
Acquisition Mode:             Single Scan
Trigger Mode:                 Internal
Exposure Time (secs):         30
Readout Mode:                 Full Vertical Binning
Horizontal binning:           2
Extended Dynamic Range:       off
Horizontally flipped:         false
Vertical Shift Speed (usecs): 9.68
Pixel Readout Rate (MHz):     3
Baseline Clamp:               ON
Clock Amplitude:              Normal
Output Amplifier:             Conventional
Serial Number:                20367
Pre-Amplifier Gain:           4x
Spurious Noise Filter Mode:   No Filter
Photon counted:               false
Data Averaging Filter Mode:   No Filter
SR193i:
Serial Number:                SR-2646
Wavelength (nm):              690
Grating Groove Density (l/mm):300
Grating Blaze:                500nm
Input Side Slit Width (um):   1000



478.32681	261
478.84332	318
479.35983	312
479.87631	348
480.39282	297
480.9093	321
481.42575	316
481.94223	322
482.45868	327
482.97513	330
483.49158	298
484.00803	336
484.52444	327
485.04086	328
485.55728	312
486.07367	363
486.59006	318
487.10645	311
487.62283	312
488.13919	327
488.65555	333
489.17191	333
489.68826	321
490.20459	330
490.72092	346
491.23724	292
491.75354	294
492.26984	308
492.78613	317
493.30243	308
493.8187	332
494.33496	304
494.85123	337
495.36746	335
495.8837	333
496.39993	338
496.91617	317
497.43237	310
497.94858	335
498.46478	297
498.98096	322
499.49713	343
500.01331	313
500.52945	315
501.04562	323
501.56174	320
502.07788	333
502.59399	312
503.11011	304
503.62622	297
504.1423	311
504.65839	302
505.17447	319
505.69052	317
506.20657	324
506.72263	298
507.23865	318
507.75467	303
508.27069	309
508.78668	316
509.30267	320
509.81866	318
510.33463	331
510.85059	325
511.36655	327
511.88248	304
512.39844	326
512.91437	334
513.43024	320
513.94617	296
514.46204	331
514.97791	325
515.49377	309
516.00964	331
516.52551	328
517.04132	322
517.55719	322
518.073	337
518.58881	322
519.10461	312
519.62036	316
520.13617	330
520.65192	321
521.16766	313
521.68341	312
522.1991	297
522.71484	329
523.23053	321
523.74622	329
524.2619	320
524.77759	310
525.29327	317
525.8089	312
526.32452	327
526.84015	314
527.35577	303
527.8714	346
528.38696	308
528.90259	302
529.41815	323
529.93372	340
530.44922	306
530.96478	303
531.48029	315
531.99579	321
532.51129	324
533.02679	328
533.5423	298
534.05774	300
534.57318	307
535.08862	341
535.60406	308
536.11945	304
536.63489	311
537.15027	337
537.66565	353
538.18097	328
538.69635	321
539.21167	321
539.72699	317
540.24231	315
540.75763	353
541.27289	309
541.78821	309
542.30347	307
542.81873	330
543.33392	315
543.84918	341
544.36438	331
544.87958	314
545.39478	299
545.90991	322
546.42511	305
546.94025	322
547.45538	309
547.97052	305
548.4856	317
549.00073	318
549.51581	333
550.03088	316
550.5459	325
551.06097	320
551.57599	318
552.091	314
552.60602	317
553.12097	331
553.63593	294
554.15094	309
554.66583	298
555.18079	316
555.69568	322
556.21063	305
556.72552	313
557.24036	301
557.75525	314
558.27008	344
558.78491	335
559.29974	308
559.81458	314
560.32935	323
560.84412	325
561.35889	322
561.87366	311
562.38837	331
562.90308	308
563.41779	326
563.9325	304
564.44714	324
564.96179	323
565.47644	332
565.99109	314
566.50574	305
567.02032	323
567.53491	312
568.0495	330
568.56403	314
569.07861	329
569.59314	320
570.1076	327
570.62213	327
571.1366	317
571.65106	324
572.16553	329
572.67999	316
573.1944	319
573.7088	319
574.22321	309
574.73755	300
575.25195	329
575.7663	321
576.28058	327
576.79492	321
577.3092	322
577.82349	315
578.33777	318
578.85205	324
579.36627	312
579.88049	301
580.39471	311
580.90887	321
581.42303	322
581.93719	323
582.45135	320
582.96545	290
583.47955	310
583.99365	324
584.50775	298
585.02179	307
585.53583	335
586.04987	326
586.5639	351
587.07788	307
587.59186	316
588.10583	298
588.61975	311
589.13373	332
589.64758	336
590.1615	331
590.67542	294
591.18927	314
591.70306	311
592.21692	326
592.73071	307
593.24451	321
593.7583	300
594.27209	321
594.78583	320
595.29956	305
595.81323	311
596.32697	316
596.84064	314
597.35425	317
597.86792	325
598.38153	296
598.89514	323
599.40875	320
599.9223	333
600.43585	337
600.9494	326
601.46289	331
601.97638	312
602.48987	327
603.00336	305
603.51678	306
604.03021	321
604.54364	320
605.05701	316
605.57043	309
606.08374	298
606.59711	304
607.11041	317
607.62372	300
608.13702	315
608.65027	325
609.16351	304
609.67676	325
610.19	329
610.70319	312
611.21637	321
611.72949	324
612.24268	321
612.75574	309
613.26886	312
613.78192	325
614.29504	317
614.80804	316
615.32111	311
615.83411	327
616.34711	329
616.86005	311
617.37299	320
617.88593	324
618.39886	300
618.91174	332
619.42462	314
619.9375	302
620.45032	316
620.96313	315
621.47595	297
621.98871	327
622.50146	301
623.01422	322
623.52692	304
624.03967	319
624.55231	323
625.065	319
625.57764	326
626.09027	321
626.60284	294
627.11542	308
627.62799	296
628.14056	333
628.65308	324
629.16559	341
629.6781	344
630.19055	333
630.703	317
631.21539	316
631.72784	296
632.24017	307
632.75256	318
633.26489	308
633.77722	318
634.28955	319
634.80182	317
635.31409	314
635.82635	315
636.33856	302
636.85077	300
637.36292	327
637.87512	307
638.38721	308
638.89935	314
639.41144	327
639.92352	310
640.43561	311
640.94763	321
641.45966	314
641.97162	317
642.48358	339
642.99554	312
643.50751	306
644.01941	310
644.53131	302
645.04315	326
645.55499	318
646.06683	312
646.57861	305
647.09045	290
647.60217	315
648.11395	316
648.62567	314
649.13733	320
649.64905	300
650.16064	314
650.6723	321
651.1839	301
651.6955	300
652.20709	294
652.71863	300
653.23016	332
653.74164	312
654.25311	303
654.76459	307
655.276	302
655.78741	311
656.29883	323
656.81018	325
657.32153	308
657.83289	325
658.34418	342
658.85547	307
659.3667	313
659.87793	336
660.38916	322
660.90033	315
661.4115	320
661.92267	321
662.43378	305
662.94489	314
663.45593	317
663.96698	316
664.47803	305
664.98907	303
665.50006	277
666.01099	326
666.52191	312
667.03284	307
667.54376	324
668.05463	308
668.56549	333
669.07629	310
669.5871	307
670.0979	303
670.60864	322
671.11938	317
671.63007	336
672.14075	325
672.65143	320
673.16205	317
673.67267	337
674.18329	302
674.69385	311
675.20435	316
675.7149	328
676.2254	329
676.73584	316
677.24628	332
677.75671	304
678.26715	295
678.77753	333
679.28784	316
679.79822	315
680.30847	319
680.81879	309
681.32904	333
681.83923	326
682.34949	315
682.85968	320
683.36981	315
683.87994	300
684.39008	305
684.90015	305
685.41022	321
685.92023	307
686.43024	315
686.94025	309
687.4502	313
687.96014	326
688.47003	318
688.97992	315
689.48981	297
689.99963	302
690.50946	317
691.01923	322
691.52899	290
692.03876	304
692.54846	314
693.05817	288
693.56781	317
694.07745	339
694.58704	296
695.09662	319
695.6062	321
696.11572	303
696.62524	305
697.1347	300
697.64417	317
698.15363	322
698.66302	323
699.17242	315
699.68176	309
700.1911	311
700.70044	317
701.20972	313
701.71893	321
702.22815	312
702.73737	320
703.24652	320
703.75568	320
704.26483	329
704.77393	308
705.28302	321
705.79205	311
706.30103	301
706.81006	307
707.31903	286
707.82794	306
708.33685	305
708.84576	322
709.35461	320
709.86346	310
710.37225	313
710.88104	316
711.38977	319
711.8985	301
712.40723	318
712.91589	335
713.42456	294
713.93317	308
714.44177	310
714.95032	326
715.45886	311
715.96735	352
716.47583	297
716.98431	313
717.49274	302
718.00116	315
718.50952	305
719.01788	312
719.52618	312
720.03448	325
720.54272	317
721.05096	327
721.5592	342
722.06738	305
722.57556	311
723.08368	309
723.59174	320
724.09985	319
724.60791	313
725.11591	305
725.6239	296
726.13184	309
726.63977	325
727.14771	328
727.65558	314
728.16339	308
728.67126	321
729.17902	309
729.68683	308
730.19452	317
730.70227	318
731.2099	304
731.71759	318
732.22522	289
732.73279	309
733.24036	329
733.74792	330
734.25543	320
734.76288	339
735.27032	334
735.77777	324
736.28516	306
736.79254	312
737.29987	311
737.80719	311
738.31445	310
738.82172	305
739.32892	316
739.83612	314
740.34326	289
740.8504	290
741.35748	323
741.86456	325
742.37164	317
742.87866	323
743.38562	327
743.89258	310
744.39954	341
744.90643	319
745.41327	321
745.9201	318
746.42694	324
746.93372	299
747.44049	339
747.9472	317
748.45386	315
748.96057	319
749.46716	316
749.97375	329
750.48035	301
750.98688	290
751.49341	334
751.99988	299
752.50635	305
753.01276	300
753.51917	329
754.02551	314
754.53186	303
755.03815	305
755.54443	327
756.05066	312
756.55688	311
757.06305	309
757.56921	306
758.07532	303
758.58142	306
759.08746	338
759.59351	323
760.09949	310
760.60547	305
761.11139	322
761.61725	327
762.12317	296
762.62897	321
763.13483	331
763.64056	329
764.1463	320
764.65204	308
765.15771	316
765.66339	324
766.16901	300
766.67462	308
767.18018	316
767.68567	316
768.19116	304
768.69666	310
769.20209	317
769.70746	301
770.21283	316
770.7182	297
771.22351	316
771.72876	324
772.23401	313
772.73926	324
773.24445	301
773.74957	320
774.2547	320
774.75977	330
775.26483	327
775.76984	318
776.27484	319
776.77979	310
777.28473	316
777.78961	338
778.29449	320
778.79932	316
779.30408	307
779.80884	324
780.3136	318
780.8183	324
781.32294	338
781.82758	327
782.33215	309
782.83673	325
783.34131	321
783.84576	319
784.35028	307
784.85468	304
785.35907	318
785.86346	332
786.3678	310
786.87213	304
787.3764	322
787.88062	304
788.38483	311
788.88898	312
789.39313	332
789.89722	324
790.40131	318
790.90533	328
791.40936	301
791.91333	326
792.4173	306
792.9212	314
793.42505	307
793.92889	337
794.43268	292
794.93646	313
795.44019	312
795.94391	287
796.44757	309
796.95123	307
797.45483	314
797.95837	332
798.46191	322
798.96539	313
799.46887	315
799.97235	302
800.47571	321
800.97906	303
801.48242	300
801.98572	323
802.48895	318
802.99219	316
803.49536	315
803.99854	321
804.50165	316
805.00476	293
805.50781	307
806.01086	301
806.51379	335
807.01678	343
807.51971	299
808.02258	318
808.52539	296
809.02826	303
809.53101	300
810.03375	324
810.53644	314
811.03912	301
811.54175	307
812.04437	313
812.54694	316
813.04944	305
813.55194	304
814.05444	322
814.55682	320
815.05927	306
815.56158	331
816.0639	317
816.56622	305
817.06842	339
817.57068	339
818.07281	343
818.57495	316
819.07709	333
819.57916	299
820.08118	314
820.58319	328
821.08514	297
821.5871	313
822.08899	318
822.59082	333
823.09265	300
823.59442	300
824.09619	303
824.5979	317
825.09955	314
825.6012	323
826.10278	314
826.60437	311
827.1059	320
827.60736	303
828.10883	313
828.61023	301
829.11163	330
829.61298	324
830.11432	309
830.61554	311
831.11682	317
831.61798	322
832.11914	325
832.6203	328
833.1214	332
833.62244	313
834.12347	319
834.62445	322
835.12537	309
835.62628	313
836.12714	306
836.62799	323
837.12878	332
837.62952	315
838.13025	311
838.63092	302
839.13153	314
839.63214	317
840.13275	301
840.63324	311
841.13373	311
841.63422	306
842.13464	324
842.63501	306
843.13538	325
843.63568	331
844.13593	321
844.63617	305
845.13635	297
845.63647	314
846.1366	331
846.63672	308
847.13672	295
847.63672	331
848.13672	328
848.6366	303
849.13647	311
849.63635	323
850.13617	324
850.63593	305
851.13568	316
851.63538	336
852.13501	298
852.63464	316
853.13422	321
853.63373	319
854.13324	328
854.63275	278
855.13214	308
855.63153	320
856.13086	307
856.63019	303
857.12946	313
857.62866	315
858.12787	324
858.62701	333
859.12616	306
859.62524	311
860.12427	318
860.62323	317
861.12219	313
861.62109	322
862.12	331
862.61884	314
863.11761	316
863.61639	304
864.11511	316
864.61377	315
865.11243	314
865.61102	316
866.10962	331
866.60809	298
867.10663	306
867.60504	318
868.10345	318
868.60181	313
869.10016	310
869.59839	316
870.09668	314
870.59485	313
871.09302	304
871.59113	317
872.08923	328
872.58728	341
873.08527	310
873.58325	314
874.08118	316
874.57904	324
875.0769	329
875.57465	294
876.07245	312
876.57013	329
877.06781	318
877.56549	315
878.06305	315
878.56061	330
879.05817	317
879.5556	298
880.05304	330
880.55042	320
881.04779	342
881.5451	335
882.04236	301
882.53961	322
883.0368	334
883.53394	320
884.03107	325
884.52808	322
885.02515	343
