Date and Time:                Wed Oct 22 09:17:37.478 2025
Software Version:             4.30.30000.0
Unstabilized Temperature (C): -88.982
Model:                        DU971P_UVB
Data Type:                    Counts
Acquisition Mode:             Single Scan
Trigger Mode:                 Internal
Exposure Time (secs):         30
Readout Mode:                 Full Vertical Binning
Horizontal binning:           2
Extended Dynamic Range:       off
Horizontally flipped:         false
Vertical Shift Speed (usecs): 9.68
Pixel Readout Rate (MHz):     3
Baseline Clamp:               ON
Clock Amplitude:              Normal
Output Amplifier:             Conventional
Serial Number:                20367
Pre-Amplifier Gain:           4x
Spurious Noise Filter Mode:   No Filter
Photon counted:               false
Data Averaging Filter Mode:   No Filter
SR193i:
Serial Number:                SR-2646
Wavelength (nm):              690
Grating Groove Density (l/mm):300
Grating Blaze:                500nm
Input Side Slit Width (um):   1000



478.32681	277
478.84332	308
479.35983	324
479.87631	317
480.39282	319
480.9093	322
481.42575	333
481.94223	315
482.45868	308
482.97513	299
483.49158	330
484.00803	321
484.52444	316
485.04086	319
485.55728	304
486.07367	304
486.59006	323
487.10645	323
487.62283	320
488.13919	317
488.65555	318
489.17191	323
489.68826	334
490.20459	318
490.72092	308
491.23724	315
491.75354	318
492.26984	310
492.78613	312
493.30243	304
493.8187	328
494.33496	337
494.85123	308
495.36746	319
495.8837	312
496.39993	334
496.91617	303
497.43237	314
497.94858	330
498.46478	331
498.98096	314
499.49713	303
500.01331	318
500.52945	320
501.04562	330
501.56174	333
502.07788	312
502.59399	311
503.11011	325
503.62622	306
504.1423	324
504.65839	302
505.17447	325
505.69052	322
506.20657	335
506.72263	327
507.23865	305
507.75467	321
508.27069	331
508.78668	307
509.30267	334
509.81866	324
510.33463	335
510.85059	319
511.36655	334
511.88248	340
512.39844	324
512.91437	323
513.43024	296
513.94617	287
514.46204	328
514.97791	303
515.49377	338
516.00964	312
516.52551	331
517.04132	312
517.55719	328
518.073	318
518.58881	319
519.10461	324
519.62036	305
520.13617	333
520.65192	331
521.16766	316
521.68341	324
522.1991	310
522.71484	313
523.23053	309
523.74622	314
524.2619	331
524.77759	317
525.29327	314
525.8089	299
526.32452	311
526.84015	323
527.35577	315
527.8714	309
528.38696	329
528.90259	328
529.41815	314
529.93372	329
530.44922	309
530.96478	318
531.48029	327
531.99579	325
532.51129	344
533.02679	306
533.5423	307
534.05774	307
534.57318	320
535.08862	321
535.60406	327
536.11945	316
536.63489	337
537.15027	313
537.66565	306
538.18097	338
538.69635	328
539.21167	310
539.72699	331
540.24231	299
540.75763	304
541.27289	308
541.78821	322
542.30347	326
542.81873	321
543.33392	322
543.84918	314
544.36438	316
544.87958	319
545.39478	317
545.90991	327
546.42511	295
546.94025	326
547.45538	319
547.97052	314
548.4856	309
549.00073	321
549.51581	303
550.03088	296
550.5459	330
551.06097	303
551.57599	332
552.091	335
552.60602	321
553.12097	329
553.63593	320
554.15094	303
554.66583	297
555.18079	305
555.69568	330
556.21063	319
556.72552	316
557.24036	301
557.75525	311
558.27008	326
558.78491	327
559.29974	314
559.81458	315
560.32935	337
560.84412	329
561.35889	321
561.87366	300
562.38837	321
562.90308	334
563.41779	292
563.9325	299
564.44714	336
564.96179	327
565.47644	325
565.99109	301
566.50574	331
567.02032	328
567.53491	321
568.0495	319
568.56403	328
569.07861	314
569.59314	333
570.1076	308
570.62213	323
571.1366	338
571.65106	311
572.16553	313
572.67999	303
573.1944	313
573.7088	314
574.22321	323
574.73755	313
575.25195	321
575.7663	329
576.28058	330
576.79492	319
577.3092	321
577.82349	306
578.33777	321
578.85205	290
579.36627	319
579.88049	319
580.39471	323
580.90887	314
581.42303	336
581.93719	318
582.45135	319
582.96545	308
583.47955	320
583.99365	333
584.50775	333
585.02179	327
585.53583	330
586.04987	323
586.5639	315
587.07788	309
587.59186	323
588.10583	316
588.61975	315
589.13373	311
589.64758	318
590.1615	330
590.67542	333
591.18927	327
591.70306	332
592.21692	299
592.73071	317
593.24451	311
593.7583	311
594.27209	322
594.78583	334
595.29956	308
595.81323	338
596.32697	320
596.84064	314
597.35425	318
597.86792	324
598.38153	329
598.89514	324
599.40875	345
599.9223	326
600.43585	329
600.9494	338
601.46289	325
601.97638	304
602.48987	306
603.00336	311
603.51678	313
604.03021	302
604.54364	314
605.05701	304
605.57043	318
606.08374	309
606.59711	311
607.11041	326
607.62372	318
608.13702	320
608.65027	289
609.16351	302
609.67676	319
610.19	331
610.70319	316
611.21637	333
611.72949	327
612.24268	325
612.75574	325
613.26886	336
613.78192	320
614.29504	326
614.80804	335
615.32111	302
615.83411	328
616.34711	321
616.86005	307
617.37299	322
617.88593	325
618.39886	320
618.91174	313
619.42462	306
619.9375	327
620.45032	316
620.96313	328
621.47595	306
621.98871	315
622.50146	326
623.01422	285
623.52692	311
624.03967	312
624.55231	336
625.065	322
625.57764	312
626.09027	335
626.60284	310
627.11542	330
627.62799	323
628.14056	312
628.65308	309
629.16559	325
629.6781	327
630.19055	327
630.703	305
631.21539	307
631.72784	323
632.24017	322
632.75256	316
633.26489	316
633.77722	312
634.28955	325
634.80182	299
635.31409	301
635.82635	307
636.33856	304
636.85077	321
637.36292	308
637.87512	301
638.38721	322
638.89935	317
639.41144	339
639.92352	326
640.43561	327
640.94763	307
641.45966	327
641.97162	326
642.48358	324
642.99554	307
643.50751	303
644.01941	320
644.53131	331
645.04315	317
645.55499	297
646.06683	316
646.57861	312
647.09045	301
647.60217	313
648.11395	301
648.62567	308
649.13733	304
649.64905	298
650.16064	307
650.6723	316
651.1839	318
651.6955	306
652.20709	313
652.71863	292
653.23016	307
653.74164	319
654.25311	323
654.76459	304
655.276	325
655.78741	330
656.29883	329
656.81018	319
657.32153	319
657.83289	308
658.34418	319
658.85547	317
659.3667	317
659.87793	318
660.38916	320
660.90033	314
661.4115	302
661.92267	316
662.43378	325
662.94489	321
663.45593	321
663.96698	324
664.47803	322
664.98907	312
665.50006	315
666.01099	325
666.52191	323
667.03284	308
667.54376	299
668.05463	283
668.56549	325
669.07629	310
669.5871	309
670.0979	320
670.60864	329
671.11938	322
671.63007	330
672.14075	308
672.65143	316
673.16205	320
673.67267	325
674.18329	314
674.69385	297
675.20435	337
675.7149	311
676.2254	301
676.73584	303
677.24628	298
677.75671	324
678.26715	321
678.77753	310
679.28784	306
679.79822	308
680.30847	316
680.81879	319
681.32904	327
681.83923	319
682.34949	310
682.85968	303
683.36981	331
683.87994	318
684.39008	313
684.90015	303
685.41022	322
685.92023	312
686.43024	332
686.94025	326
687.4502	314
687.96014	317
688.47003	291
688.97992	305
689.48981	310
689.99963	325
690.50946	315
691.01923	312
691.52899	319
692.03876	322
692.54846	314
693.05817	320
693.56781	303
694.07745	318
694.58704	307
695.09662	308
695.6062	331
696.11572	317
696.62524	323
697.1347	320
697.64417	315
698.15363	294
698.66302	319
699.17242	321
699.68176	332
700.1911	314
700.70044	328
701.20972	304
701.71893	325
702.22815	296
702.73737	328
703.24652	310
703.75568	308
704.26483	310
704.77393	300
705.28302	330
705.79205	322
706.30103	296
706.81006	314
707.31903	334
707.82794	324
708.33685	298
708.84576	309
709.35461	296
709.86346	299
710.37225	329
710.88104	320
711.38977	296
711.8985	330
712.40723	319
712.91589	325
713.42456	299
713.93317	293
714.44177	306
714.95032	305
715.45886	327
715.96735	324
716.47583	320
716.98431	308
717.49274	298
718.00116	311
718.50952	292
719.01788	306
719.52618	310
720.03448	299
720.54272	313
721.05096	307
721.5592	340
722.06738	331
722.57556	308
723.08368	312
723.59174	306
724.09985	324
724.60791	335
725.11591	312
725.6239	319
726.13184	312
726.63977	300
727.14771	307
727.65558	324
728.16339	292
728.67126	300
729.17902	314
729.68683	323
730.19452	313
730.70227	323
731.2099	323
731.71759	315
732.22522	314
732.73279	321
733.24036	312
733.74792	311
734.25543	310
734.76288	316
735.27032	302
735.77777	314
736.28516	307
736.79254	312
737.29987	317
737.80719	298
738.31445	327
738.82172	311
739.32892	293
739.83612	317
740.34326	298
740.8504	321
741.35748	307
741.86456	297
742.37164	320
742.87866	292
743.38562	307
743.89258	302
744.39954	316
744.90643	326
745.41327	337
745.9201	327
746.42694	304
746.93372	340
747.44049	328
747.9472	327
748.45386	317
748.96057	323
749.46716	315
749.97375	318
750.48035	284
750.98688	329
751.49341	314
751.99988	306
752.50635	326
753.01276	304
753.51917	331
754.02551	310
754.53186	313
755.03815	309
755.54443	332
756.05066	335
756.55688	331
757.06305	295
757.56921	343
758.07532	319
758.58142	309
759.08746	303
759.59351	348
760.09949	317
760.60547	308
761.11139	317
761.61725	334
762.12317	320
762.62897	304
763.13483	311
763.64056	333
764.1463	304
764.65204	321
765.15771	313
765.66339	306
766.16901	321
766.67462	336
767.18018	310
767.68567	313
768.19116	294
768.69666	323
769.20209	326
769.70746	311
770.21283	321
770.7182	316
771.22351	342
771.72876	319
772.23401	311
772.73926	313
773.24445	310
773.74957	315
774.2547	334
774.75977	311
775.26483	324
775.76984	296
776.27484	308
776.77979	323
777.28473	324
777.78961	316
778.29449	309
778.79932	327
779.30408	296
779.80884	325
780.3136	316
780.8183	304
781.32294	327
781.82758	311
782.33215	309
782.83673	311
783.34131	313
783.84576	335
784.35028	334
784.85468	317
785.35907	312
785.86346	321
786.3678	348
786.87213	315
787.3764	314
787.88062	319
788.38483	314
788.88898	318
789.39313	322
789.89722	311
790.40131	315
790.90533	307
791.40936	334
791.91333	310
792.4173	321
792.9212	313
793.42505	310
793.92889	306
794.43268	311
794.93646	304
795.44019	322
795.94391	305
796.44757	309
796.95123	306
797.45483	301
797.95837	308
798.46191	335
798.96539	319
799.46887	321
799.97235	317
800.47571	311
800.97906	306
801.48242	322
801.98572	304
802.48895	314
802.99219	314
803.49536	311
803.99854	307
804.50165	338
805.00476	317
805.50781	307
806.01086	287
806.51379	311
807.01678	308
807.51971	304
808.02258	308
808.52539	314
809.02826	291
809.53101	325
810.03375	306
810.53644	326
811.03912	335
811.54175	325
812.04437	330
812.54694	289
813.04944	332
813.55194	311
814.05444	310
814.55682	317
815.05927	331
815.56158	332
816.0639	324
816.56622	309
817.06842	308
817.57068	308
818.07281	307
818.57495	316
819.07709	319
819.57916	297
820.08118	314
820.58319	319
821.08514	312
821.5871	327
822.08899	326
822.59082	302
823.09265	321
823.59442	324
824.09619	322
824.5979	322
825.09955	316
825.6012	327
826.10278	298
826.60437	324
827.1059	332
827.60736	317
828.10883	307
828.61023	313
829.11163	317
829.61298	339
830.11432	332
830.61554	331
831.11682	329
831.61798	328
832.11914	327
832.6203	309
833.1214	313
833.62244	322
834.12347	309
834.62445	330
835.12537	325
835.62628	317
836.12714	302
836.62799	304
837.12878	298
837.62952	318
838.13025	304
838.63092	304
839.13153	308
839.63214	312
840.13275	309
840.63324	315
841.13373	314
841.63422	338
842.13464	328
842.63501	337
843.13538	328
843.63568	307
844.13593	345
844.63617	299
845.13635	331
845.63647	318
846.1366	322
846.63672	304
847.13672	333
847.63672	321
848.13672	329
848.6366	319
849.13647	326
849.63635	319
850.13617	294
850.63593	323
851.13568	313
851.63538	308
852.13501	316
852.63464	318
853.13422	301
853.63373	315
854.13324	306
854.63275	319
855.13214	294
855.63153	325
856.13086	333
856.63019	311
857.12946	322
857.62866	308
858.12787	306
858.62701	331
859.12616	317
859.62524	299
860.12427	313
860.62323	331
861.12219	332
861.62109	310
862.12	320
862.61884	335
863.11761	329
863.61639	332
864.11511	330
864.61377	306
865.11243	302
865.61102	322
866.10962	309
866.60809	328
867.10663	283
867.60504	330
868.10345	325
868.60181	293
869.10016	307
869.59839	284
870.09668	316
870.59485	315
871.09302	306
871.59113	310
872.08923	325
872.58728	331
873.08527	324
873.58325	324
874.08118	303
874.57904	310
875.0769	329
875.57465	316
876.07245	319
876.57013	307
877.06781	341
877.56549	306
878.06305	303
878.56061	302
879.05817	332
879.5556	323
880.05304	313
880.55042	319
881.04779	302
881.5451	294
882.04236	318
882.53961	335
883.0368	316
883.53394	302
884.03107	304
884.52808	335
885.02515	320
