Date and Time:                Fri Oct 17 06:36:58.588 2025
Software Version:             4.30.30000.0
Temperature (C):              -90
Model:                        DU971P_UVB
Data Type:                    Counts
Acquisition Mode:             Single Scan
Trigger Mode:                 Internal
Exposure Time (secs):         30
Readout Mode:                 Full Vertical Binning
Horizontal binning:           2
Extended Dynamic Range:       off
Horizontally flipped:         false
Vertical Shift Speed (usecs): 9.68
Pixel Readout Rate (MHz):     3
Baseline Clamp:               ON
Clock Amplitude:              Normal
Output Amplifier:             Conventional
Serial Number:                20367
Pre-Amplifier Gain:           4x
Spurious Noise Filter Mode:   No Filter
Photon counted:               false
Data Averaging Filter Mode:   No Filter
SR193i:
Serial Number:                SR-2646
Wavelength (nm):              690
Grating Groove Density (l/mm):300
Grating Blaze:                500nm
Input Side Slit Width (um):   1000



478.32681	262
478.84332	306
479.35983	350
479.87631	332
480.39282	319
480.9093	319
481.42575	323
481.94223	312
482.45868	323
482.97513	346
483.49158	322
484.00803	339
484.52444	332
485.04086	324
485.55728	343
486.07367	325
486.59006	334
487.10645	342
487.62283	339
488.13919	336
488.65555	322
489.17191	345
489.68826	310
490.20459	333
490.72092	340
491.23724	369
491.75354	338
492.26984	346
492.78613	364
493.30243	340
493.8187	343
494.33496	351
494.85123	348
495.36746	343
495.8837	338
496.39993	345
496.91617	329
497.43237	341
497.94858	352
498.46478	342
498.98096	362
499.49713	381
500.01331	331
500.52945	383
501.04562	343
501.56174	360
502.07788	365
502.59399	376
503.11011	346
503.62622	364
504.1423	352
504.65839	347
505.17447	374
505.69052	354
506.20657	354
506.72263	344
507.23865	346
507.75467	352
508.27069	336
508.78668	358
509.30267	366
509.81866	344
510.33463	363
510.85059	354
511.36655	329
511.88248	360
512.39844	334
512.91437	380
513.43024	347
513.94617	350
514.46204	343
514.97791	364
515.49377	359
516.00964	345
516.52551	343
517.04132	357
517.55719	366
518.073	335
518.58881	349
519.10461	345
519.62036	357
520.13617	324
520.65192	349
521.16766	348
521.68341	391
522.1991	324
522.71484	363
523.23053	354
523.74622	365
524.2619	351
524.77759	340
525.29327	363
525.8089	368
526.32452	331
526.84015	355
527.35577	364
527.8714	342
528.38696	371
528.90259	392
529.41815	341
529.93372	350
530.44922	379
530.96478	351
531.48029	343
531.99579	353
532.51129	351
533.02679	348
533.5423	369
534.05774	362
534.57318	337
535.08862	333
535.60406	357
536.11945	360
536.63489	334
537.15027	347
537.66565	353
538.18097	348
538.69635	333
539.21167	345
539.72699	338
540.24231	360
540.75763	343
541.27289	344
541.78821	358
542.30347	343
542.81873	338
543.33392	342
543.84918	337
544.36438	330
544.87958	348
545.39478	340
545.90991	354
546.42511	359
546.94025	327
547.45538	316
547.97052	359
548.4856	340
549.00073	309
549.51581	334
550.03088	364
550.5459	335
551.06097	344
551.57599	313
552.091	353
552.60602	344
553.12097	333
553.63593	334
554.15094	333
554.66583	330
555.18079	344
555.69568	337
556.21063	351
556.72552	328
557.24036	327
557.75525	338
558.27008	344
558.78491	339
559.29974	351
559.81458	341
560.32935	328
560.84412	332
561.35889	344
561.87366	348
562.38837	334
562.90308	338
563.41779	358
563.9325	327
564.44714	337
564.96179	342
565.47644	310
565.99109	339
566.50574	348
567.02032	342
567.53491	318
568.0495	351
568.56403	342
569.07861	333
569.59314	347
570.1076	323
570.62213	338
571.1366	329
571.65106	327
572.16553	344
572.67999	352
573.1944	345
573.7088	349
574.22321	318
574.73755	327
575.25195	347
575.7663	322
576.28058	347
576.79492	331
577.3092	335
577.82349	335
578.33777	339
578.85205	344
579.36627	336
579.88049	322
580.39471	341
580.90887	308
581.42303	321
581.93719	331
582.45135	328
582.96545	334
583.47955	321
583.99365	327
584.50775	350
585.02179	333
585.53583	333
586.04987	323
586.5639	333
587.07788	332
587.59186	345
588.10583	335
588.61975	308
589.13373	345
589.64758	307
590.1615	330
590.67542	318
591.18927	336
591.70306	324
592.21692	312
592.73071	354
593.24451	324
593.7583	323
594.27209	326
594.78583	338
595.29956	334
595.81323	315
596.32697	341
596.84064	346
597.35425	318
597.86792	337
598.38153	359
598.89514	328
599.40875	324
599.9223	336
600.43585	333
600.9494	313
601.46289	348
601.97638	335
602.48987	331
603.00336	328
603.51678	319
604.03021	341
604.54364	349
605.05701	355
605.57043	347
606.08374	316
606.59711	329
607.11041	314
607.62372	347
608.13702	313
608.65027	300
609.16351	343
609.67676	307
610.19	323
610.70319	337
611.21637	355
611.72949	328
612.24268	335
612.75574	332
613.26886	337
613.78192	338
614.29504	324
614.80804	325
615.32111	335
615.83411	313
616.34711	336
616.86005	320
617.37299	321
617.88593	331
618.39886	310
618.91174	309
619.42462	323
619.9375	330
620.45032	297
620.96313	337
621.47595	336
621.98871	332
622.50146	311
623.01422	320
623.52692	340
624.03967	332
624.55231	311
625.065	329
625.57764	332
626.09027	326
626.60284	309
627.11542	336
627.62799	329
628.14056	324
628.65308	314
629.16559	310
629.6781	337
630.19055	324
630.703	330
631.21539	319
631.72784	320
632.24017	343
632.75256	331
633.26489	321
633.77722	320
634.28955	306
634.80182	312
635.31409	335
635.82635	304
636.33856	333
636.85077	327
637.36292	323
637.87512	338
638.38721	330
638.89935	327
639.41144	297
639.92352	326
640.43561	332
640.94763	331
641.45966	323
641.97162	330
642.48358	331
642.99554	335
643.50751	331
644.01941	305
644.53131	318
645.04315	343
645.55499	335
646.06683	340
646.57861	345
647.09045	316
647.60217	341
648.11395	324
648.62567	330
649.13733	321
649.64905	312
650.16064	315
650.6723	333
651.1839	332
651.6955	334
652.20709	310
652.71863	359
653.23016	341
653.74164	316
654.25311	292
654.76459	315
655.276	323
655.78741	331
656.29883	345
656.81018	309
657.32153	316
657.83289	350
658.34418	343
658.85547	340
659.3667	340
659.87793	322
660.38916	310
660.90033	308
661.4115	343
661.92267	334
662.43378	317
662.94489	335
663.45593	332
663.96698	330
664.47803	328
664.98907	301
665.50006	327
666.01099	326
666.52191	308
667.03284	325
667.54376	318
668.05463	301
668.56549	340
669.07629	312
669.5871	330
670.0979	318
670.60864	307
671.11938	317
671.63007	332
672.14075	320
672.65143	321
673.16205	327
673.67267	322
674.18329	321
674.69385	324
675.20435	318
675.7149	325
676.2254	329
676.73584	335
677.24628	317
677.75671	318
678.26715	335
678.77753	341
679.28784	327
679.79822	313
680.30847	317
680.81879	316
681.32904	307
681.83923	333
682.34949	310
682.85968	335
683.36981	308
683.87994	320
684.39008	331
684.90015	336
685.41022	320
685.92023	310
686.43024	348
686.94025	331
687.4502	335
687.96014	319
688.47003	293
688.97992	335
689.48981	322
689.99963	308
690.50946	328
691.01923	326
691.52899	346
692.03876	315
692.54846	316
693.05817	311
693.56781	329
694.07745	325
694.58704	325
695.09662	330
695.6062	303
696.11572	321
696.62524	334
697.1347	317
697.64417	301
698.15363	300
698.66302	327
699.17242	335
699.68176	326
700.1911	320
700.70044	330
701.20972	330
701.71893	334
702.22815	317
702.73737	337
703.24652	300
703.75568	338
704.26483	314
704.77393	321
705.28302	326
705.79205	307
706.30103	356
706.81006	322
707.31903	333
707.82794	328
708.33685	320
708.84576	323
709.35461	294
709.86346	311
710.37225	318
710.88104	326
711.38977	320
711.8985	295
712.40723	305
712.91589	295
713.42456	324
713.93317	310
714.44177	337
714.95032	321
715.45886	305
715.96735	313
716.47583	324
716.98431	327
717.49274	324
718.00116	336
718.50952	327
719.01788	326
719.52618	321
720.03448	301
720.54272	310
721.05096	331
721.5592	329
722.06738	321
722.57556	323
723.08368	318
723.59174	314
724.09985	325
724.60791	325
725.11591	327
725.6239	326
726.13184	312
726.63977	330
727.14771	318
727.65558	333
728.16339	339
728.67126	307
729.17902	295
729.68683	291
730.19452	324
730.70227	305
731.2099	336
731.71759	333
732.22522	324
732.73279	313
733.24036	325
733.74792	314
734.25543	317
734.76288	321
735.27032	299
735.77777	316
736.28516	321
736.79254	305
737.29987	301
737.80719	334
738.31445	310
738.82172	323
739.32892	330
739.83612	314
740.34326	312
740.8504	333
741.35748	321
741.86456	317
742.37164	309
742.87866	326
743.38562	306
743.89258	325
744.39954	319
744.90643	343
745.41327	329
745.9201	331
746.42694	334
746.93372	306
747.44049	310
747.9472	322
748.45386	310
748.96057	310
749.46716	330
749.97375	330
750.48035	324
750.98688	335
751.49341	313
751.99988	306
752.50635	302
753.01276	326
753.51917	306
754.02551	308
754.53186	331
755.03815	331
755.54443	324
756.05066	315
756.55688	300
757.06305	317
757.56921	329
758.07532	333
758.58142	345
759.08746	304
759.59351	334
760.09949	327
760.60547	332
761.11139	327
761.61725	336
762.12317	325
762.62897	307
763.13483	328
763.64056	336
764.1463	318
764.65204	314
765.15771	324
765.66339	333
766.16901	327
766.67462	335
767.18018	301
767.68567	318
768.19116	323
768.69666	328
769.20209	309
769.70746	306
770.21283	340
770.7182	335
771.22351	322
771.72876	310
772.23401	317
772.73926	403
773.24445	1891
773.74957	325
774.2547	311
774.75977	344
775.26483	322
775.76984	312
776.27484	339
776.77979	318
777.28473	334
777.78961	321
778.29449	302
778.79932	330
779.30408	320
779.80884	342
780.3136	328
780.8183	302
781.32294	334
781.82758	304
782.33215	316
782.83673	295
783.34131	321
783.84576	330
784.35028	317
784.85468	318
785.35907	324
785.86346	322
786.3678	322
786.87213	324
787.3764	315
787.88062	320
788.38483	326
788.88898	316
789.39313	324
789.89722	314
790.40131	321
790.90533	347
791.40936	329
791.91333	321
792.4173	301
792.9212	320
793.42505	328
793.92889	327
794.43268	323
794.93646	299
795.44019	317
795.94391	304
796.44757	322
796.95123	315
797.45483	323
797.95837	312
798.46191	326
798.96539	334
799.46887	316
799.97235	322
800.47571	324
800.97906	347
801.48242	328
801.98572	305
802.48895	313
802.99219	326
803.49536	314
803.99854	301
804.50165	325
805.00476	305
805.50781	325
806.01086	319
806.51379	344
807.01678	312
807.51971	309
808.02258	332
808.52539	289
809.02826	314
809.53101	325
810.03375	320
810.53644	330
811.03912	316
811.54175	310
812.04437	317
812.54694	318
813.04944	320
813.55194	325
814.05444	327
814.55682	324
815.05927	309
815.56158	310
816.0639	325
816.56622	340
817.06842	318
817.57068	306
818.07281	331
818.57495	310
819.07709	335
819.57916	329
820.08118	308
820.58319	322
821.08514	313
821.5871	320
822.08899	316
822.59082	325
823.09265	312
823.59442	319
824.09619	340
824.5979	317
825.09955	342
825.6012	308
826.10278	307
826.60437	318
827.1059	317
827.60736	338
828.10883	308
828.61023	322
829.11163	320
829.61298	301
830.11432	323
830.61554	333
831.11682	306
831.61798	335
832.11914	330
832.6203	325
833.1214	329
833.62244	299
834.12347	332
834.62445	304
835.12537	327
835.62628	320
836.12714	312
836.62799	313
837.12878	310
837.62952	312
838.13025	320
838.63092	307
839.13153	327
839.63214	335
840.13275	324
840.63324	319
841.13373	323
841.63422	301
842.13464	319
842.63501	305
843.13538	323
843.63568	306
844.13593	309
844.63617	324
845.13635	339
845.63647	323
846.1366	343
846.63672	326
847.13672	305
847.63672	320
848.13672	285
848.6366	315
849.13647	329
849.63635	312
850.13617	331
850.63593	323
851.13568	317
851.63538	328
852.13501	323
852.63464	315
853.13422	310
853.63373	335
854.13324	333
854.63275	331
855.13214	297
855.63153	305
856.13086	307
856.63019	317
857.12946	305
857.62866	336
858.12787	315
858.62701	320
859.12616	322
859.62524	332
860.12427	322
860.62323	318
861.12219	348
861.62109	323
862.12	308
862.61884	331
863.11761	325
863.61639	322
864.11511	311
864.61377	325
865.11243	339
865.61102	321
866.10962	306
866.60809	309
867.10663	311
867.60504	323
868.10345	322
868.60181	312
869.10016	307
869.59839	318
870.09668	334
870.59485	365
871.09302	387
871.59113	423
872.08923	430
872.58728	419
873.08527	429
873.58325	447
874.08118	445
874.57904	446
875.0769	442
875.57465	452
876.07245	459
876.57013	453
877.06781	460
877.56549	439
878.06305	487
878.56061	482
879.05817	449
879.5556	448
880.05304	452
880.55042	462
881.04779	475
881.5451	449
882.04236	445
882.53961	472
883.0368	457
883.53394	441
884.03107	501
884.52808	458
885.02515	470
