Date and Time:                Fri Oct 17 06:38:20.511 2025
Software Version:             4.30.30000.0
Temperature (C):              -90
Model:                        DU971P_UVB
Data Type:                    Counts
Acquisition Mode:             Single Scan
Trigger Mode:                 Internal
Exposure Time (secs):         30
Readout Mode:                 Full Vertical Binning
Horizontal binning:           2
Extended Dynamic Range:       off
Horizontally flipped:         false
Vertical Shift Speed (usecs): 9.68
Pixel Readout Rate (MHz):     3
Baseline Clamp:               ON
Clock Amplitude:              Normal
Output Amplifier:             Conventional
Serial Number:                20367
Pre-Amplifier Gain:           4x
Spurious Noise Filter Mode:   No Filter
Photon counted:               false
Data Averaging Filter Mode:   No Filter
SR193i:
Serial Number:                SR-2646
Wavelength (nm):              690
Grating Groove Density (l/mm):300
Grating Blaze:                500nm
Input Side Slit Width (um):   1000



478.32681	285
478.84332	312
479.35983	321
479.87631	325
480.39282	323
480.9093	322
481.42575	321
481.94223	320
482.45868	325
482.97513	331
483.49158	338
484.00803	323
484.52444	324
485.04086	323
485.55728	330
486.07367	337
486.59006	314
487.10645	310
487.62283	329
488.13919	339
488.65555	337
489.17191	359
489.68826	325
490.20459	315
490.72092	345
491.23724	356
491.75354	324
492.26984	334
492.78613	331
493.30243	340
493.8187	335
494.33496	352
494.85123	350
495.36746	354
495.8837	363
496.39993	335
496.91617	366
497.43237	350
497.94858	369
498.46478	364
498.98096	346
499.49713	369
500.01331	363
500.52945	369
501.04562	334
501.56174	381
502.07788	366
502.59399	343
503.11011	355
503.62622	344
504.1423	345
504.65839	368
505.17447	350
505.69052	334
506.20657	365
506.72263	329
507.23865	356
507.75467	339
508.27069	354
508.78668	363
509.30267	381
509.81866	351
510.33463	334
510.85059	361
511.36655	338
511.88248	362
512.39844	359
512.91437	353
513.43024	355
513.94617	358
514.46204	340
514.97791	360
515.49377	345
516.00964	358
516.52551	370
517.04132	373
517.55719	327
518.073	338
518.58881	327
519.10461	330
519.62036	360
520.13617	348
520.65192	339
521.16766	346
521.68341	328
522.1991	340
522.71484	351
523.23053	373
523.74622	353
524.2619	349
524.77759	347
525.29327	350
525.8089	338
526.32452	336
526.84015	353
527.35577	360
527.8714	368
528.38696	360
528.90259	375
529.41815	340
529.93372	328
530.44922	350
530.96478	364
531.48029	329
531.99579	390
532.51129	338
533.02679	341
533.5423	333
534.05774	352
534.57318	346
535.08862	318
535.60406	334
536.11945	348
536.63489	330
537.15027	357
537.66565	352
538.18097	374
538.69635	360
539.21167	339
539.72699	338
540.24231	356
540.75763	354
541.27289	345
541.78821	338
542.30347	323
542.81873	332
543.33392	333
543.84918	341
544.36438	344
544.87958	352
545.39478	326
545.90991	322
546.42511	337
546.94025	343
547.45538	346
547.97052	327
548.4856	351
549.00073	306
549.51581	319
550.03088	346
550.5459	361
551.06097	358
551.57599	339
552.091	327
552.60602	346
553.12097	344
553.63593	325
554.15094	336
554.66583	321
555.18079	346
555.69568	353
556.21063	336
556.72552	334
557.24036	327
557.75525	353
558.27008	348
558.78491	332
559.29974	327
559.81458	350
560.32935	360
560.84412	320
561.35889	341
561.87366	336
562.38837	347
562.90308	342
563.41779	324
563.9325	334
564.44714	336
564.96179	341
565.47644	352
565.99109	334
566.50574	326
567.02032	319
567.53491	334
568.0495	337
568.56403	344
569.07861	345
569.59314	313
570.1076	326
570.62213	324
571.1366	353
571.65106	334
572.16553	310
572.67999	326
573.1944	327
573.7088	320
574.22321	350
574.73755	330
575.25195	322
575.7663	326
576.28058	345
576.79492	321
577.3092	318
577.82349	329
578.33777	341
578.85205	324
579.36627	330
579.88049	341
580.39471	322
580.90887	344
581.42303	322
581.93719	355
582.45135	319
582.96545	328
583.47955	341
583.99365	340
584.50775	325
585.02179	330
585.53583	332
586.04987	327
586.5639	320
587.07788	327
587.59186	343
588.10583	322
588.61975	338
589.13373	320
589.64758	327
590.1615	335
590.67542	324
591.18927	329
591.70306	323
592.21692	324
592.73071	321
593.24451	337
593.7583	314
594.27209	333
594.78583	355
595.29956	318
595.81323	319
596.32697	326
596.84064	325
597.35425	334
597.86792	344
598.38153	345
598.89514	360
599.40875	324
599.9223	298
600.43585	317
600.9494	338
601.46289	303
601.97638	336
602.48987	338
603.00336	346
603.51678	321
604.03021	320
604.54364	323
605.05701	342
605.57043	336
606.08374	328
606.59711	310
607.11041	301
607.62372	332
608.13702	324
608.65027	334
609.16351	301
609.67676	329
610.19	335
610.70319	332
611.21637	329
611.72949	335
612.24268	329
612.75574	319
613.26886	330
613.78192	356
614.29504	322
614.80804	297
615.32111	332
615.83411	315
616.34711	315
616.86005	336
617.37299	333
617.88593	302
618.39886	331
618.91174	329
619.42462	339
619.9375	311
620.45032	313
620.96313	325
621.47595	319
621.98871	319
622.50146	327
623.01422	310
623.52692	349
624.03967	319
624.55231	305
625.065	348
625.57764	347
626.09027	320
626.60284	326
627.11542	324
627.62799	337
628.14056	324
628.65308	344
629.16559	342
629.6781	322
630.19055	323
630.703	296
631.21539	303
631.72784	334
632.24017	332
632.75256	321
633.26489	321
633.77722	313
634.28955	313
634.80182	316
635.31409	320
635.82635	342
636.33856	308
636.85077	328
637.36292	314
637.87512	321
638.38721	326
638.89935	314
639.41144	332
639.92352	313
640.43561	315
640.94763	303
641.45966	307
641.97162	339
642.48358	329
642.99554	320
643.50751	342
644.01941	309
644.53131	308
645.04315	351
645.55499	331
646.06683	306
646.57861	330
647.09045	344
647.60217	329
648.11395	317
648.62567	323
649.13733	295
649.64905	329
650.16064	324
650.6723	332
651.1839	339
651.6955	317
652.20709	338
652.71863	317
653.23016	323
653.74164	337
654.25311	326
654.76459	310
655.276	328
655.78741	321
656.29883	321
656.81018	323
657.32153	320
657.83289	319
658.34418	329
658.85547	324
659.3667	325
659.87793	332
660.38916	330
660.90033	308
661.4115	327
661.92267	326
662.43378	329
662.94489	324
663.45593	332
663.96698	316
664.47803	331
664.98907	314
665.50006	306
666.01099	329
666.52191	318
667.03284	305
667.54376	325
668.05463	305
668.56549	325
669.07629	327
669.5871	328
670.0979	335
670.60864	331
671.11938	321
671.63007	338
672.14075	346
672.65143	321
673.16205	318
673.67267	316
674.18329	319
674.69385	330
675.20435	307
675.7149	321
676.2254	313
676.73584	331
677.24628	312
677.75671	317
678.26715	323
678.77753	331
679.28784	326
679.79822	324
680.30847	284
680.81879	320
681.32904	318
681.83923	342
682.34949	314
682.85968	332
683.36981	327
683.87994	335
684.39008	349
684.90015	319
685.41022	321
685.92023	316
686.43024	327
686.94025	316
687.4502	312
687.96014	329
688.47003	304
688.97992	321
689.48981	312
689.99963	331
690.50946	321
691.01923	321
691.52899	288
692.03876	320
692.54846	328
693.05817	316
693.56781	337
694.07745	309
694.58704	329
695.09662	314
695.6062	317
696.11572	327
696.62524	313
697.1347	328
697.64417	325
698.15363	333
698.66302	322
699.17242	305
699.68176	327
700.1911	339
700.70044	334
701.20972	311
701.71893	341
702.22815	337
702.73737	327
703.24652	326
703.75568	316
704.26483	321
704.77393	311
705.28302	316
705.79205	312
706.30103	323
706.81006	321
707.31903	321
707.82794	331
708.33685	306
708.84576	326
709.35461	321
709.86346	324
710.37225	311
710.88104	337
711.38977	304
711.8985	299
712.40723	328
712.91589	317
713.42456	315
713.93317	329
714.44177	331
714.95032	316
715.45886	329
715.96735	315
716.47583	320
716.98431	325
717.49274	319
718.00116	314
718.50952	314
719.01788	323
719.52618	335
720.03448	310
720.54272	288
721.05096	297
721.5592	336
722.06738	317
722.57556	332
723.08368	298
723.59174	323
724.09985	329
724.60791	311
725.11591	309
725.6239	312
726.13184	296
726.63977	317
727.14771	318
727.65558	332
728.16339	327
728.67126	327
729.17902	308
729.68683	332
730.19452	326
730.70227	311
731.2099	313
731.71759	341
732.22522	314
732.73279	314
733.24036	300
733.74792	340
734.25543	311
734.76288	301
735.27032	282
735.77777	324
736.28516	311
736.79254	298
737.29987	328
737.80719	325
738.31445	303
738.82172	300
739.32892	314
739.83612	308
740.34326	324
740.8504	317
741.35748	312
741.86456	322
742.37164	314
742.87866	339
743.38562	312
743.89258	326
744.39954	322
744.90643	310
745.41327	313
745.9201	315
746.42694	313
746.93372	318
747.44049	317
747.9472	319
748.45386	320
748.96057	300
749.46716	312
749.97375	320
750.48035	320
750.98688	331
751.49341	316
751.99988	336
752.50635	309
753.01276	321
753.51917	309
754.02551	317
754.53186	277
755.03815	313
755.54443	307
756.05066	316
756.55688	328
757.06305	326
757.56921	324
758.07532	338
758.58142	314
759.08746	332
759.59351	325
760.09949	312
760.60547	319
761.11139	325
761.61725	338
762.12317	326
762.62897	312
763.13483	315
763.64056	311
764.1463	297
764.65204	294
765.15771	289
765.66339	325
766.16901	313
766.67462	324
767.18018	325
767.68567	309
768.19116	317
768.69666	304
769.20209	312
769.70746	320
770.21283	326
770.7182	340
771.22351	307
771.72876	335
772.23401	318
772.73926	316
773.24445	317
773.74957	313
774.2547	315
774.75977	309
775.26483	326
775.76984	310
776.27484	326
776.77979	326
777.28473	323
777.78961	313
778.29449	325
778.79932	311
779.30408	311
779.80884	314
780.3136	292
780.8183	294
781.32294	325
781.82758	317
782.33215	313
782.83673	298
783.34131	303
783.84576	320
784.35028	328
784.85468	298
785.35907	326
785.86346	324
786.3678	324
786.87213	318
787.3764	312
787.88062	321
788.38483	314
788.88898	328
789.39313	315
789.89722	324
790.40131	311
790.90533	345
791.40936	304
791.91333	304
792.4173	307
792.9212	311
793.42505	308
793.92889	318
794.43268	322
794.93646	323
795.44019	292
795.94391	317
796.44757	297
796.95123	322
797.45483	312
797.95837	321
798.46191	298
798.96539	323
799.46887	320
799.97235	308
800.47571	334
800.97906	307
801.48242	321
801.98572	316
802.48895	314
802.99219	302
803.49536	314
803.99854	306
804.50165	321
805.00476	315
805.50781	326
806.01086	317
806.51379	314
807.01678	331
807.51971	340
808.02258	315
808.52539	286
809.02826	300
809.53101	315
810.03375	321
810.53644	303
811.03912	318
811.54175	310
812.04437	319
812.54694	302
813.04944	303
813.55194	339
814.05444	312
814.55682	321
815.05927	343
815.56158	342
816.0639	325
816.56622	307
817.06842	315
817.57068	332
818.07281	321
818.57495	290
819.07709	303
819.57916	322
820.08118	316
820.58319	337
821.08514	314
821.5871	308
822.08899	314
822.59082	297
823.09265	327
823.59442	306
824.09619	296
824.5979	318
825.09955	321
825.6012	323
826.10278	315
826.60437	301
827.1059	321
827.60736	303
828.10883	311
828.61023	323
829.11163	312
829.61298	299
830.11432	322
830.61554	307
831.11682	312
831.61798	290
832.11914	333
832.6203	320
833.1214	305
833.62244	309
834.12347	308
834.62445	292
835.12537	325
835.62628	305
836.12714	334
836.62799	303
837.12878	339
837.62952	315
838.13025	327
838.63092	315
839.13153	326
839.63214	311
840.13275	321
840.63324	304
841.13373	320
841.63422	333
842.13464	301
842.63501	320
843.13538	291
843.63568	311
844.13593	301
844.63617	297
845.13635	312
845.63647	315
846.1366	315
846.63672	289
847.13672	306
847.63672	321
848.13672	331
848.6366	333
849.13647	320
849.63635	308
850.13617	318
850.63593	341
851.13568	332
851.63538	317
852.13501	323
852.63464	300
853.13422	330
853.63373	314
854.13324	308
854.63275	311
855.13214	315
855.63153	327
856.13086	338
856.63019	309
857.12946	318
857.62866	323
858.12787	320
858.62701	315
859.12616	326
859.62524	327
860.12427	320
860.62323	312
861.12219	321
861.62109	313
862.12	299
862.61884	314
863.11761	300
863.61639	335
864.11511	300
864.61377	321
865.11243	334
865.61102	295
866.10962	337
866.60809	316
867.10663	305
867.60504	300
868.10345	349
868.60181	329
869.10016	300
869.59839	328
870.09668	349
870.59485	366
871.09302	365
871.59113	427
872.08923	417
872.58728	421
873.08527	440
873.58325	424
874.08118	462
874.57904	454
875.0769	440
875.57465	441
876.07245	433
876.57013	455
877.06781	454
877.56549	436
878.06305	447
878.56061	451
879.05817	455
879.5556	437
880.05304	465
880.55042	419
881.04779	455
881.5451	475
882.04236	428
882.53961	455
883.0368	447
883.53394	479
884.03107	474
884.52808	449
885.02515	475
