Date and Time:                Fri Oct 17 06:40:23.248 2025
Software Version:             4.30.30000.0
Temperature (C):              -90
Model:                        DU971P_UVB
Data Type:                    Counts
Acquisition Mode:             Single Scan
Trigger Mode:                 Internal
Exposure Time (secs):         30
Readout Mode:                 Full Vertical Binning
Horizontal binning:           2
Extended Dynamic Range:       off
Horizontally flipped:         false
Vertical Shift Speed (usecs): 9.68
Pixel Readout Rate (MHz):     3
Baseline Clamp:               ON
Clock Amplitude:              Normal
Output Amplifier:             Conventional
Serial Number:                20367
Pre-Amplifier Gain:           4x
Spurious Noise Filter Mode:   No Filter
Photon counted:               false
Data Averaging Filter Mode:   No Filter
SR193i:
Serial Number:                SR-2646
Wavelength (nm):              690
Grating Groove Density (l/mm):300
Grating Blaze:                500nm
Input Side Slit Width (um):   1000



478.32681	281
478.84332	301
479.35983	331
479.87631	322
480.39282	322
480.9093	356
481.42575	335
481.94223	329
482.45868	334
482.97513	353
483.49158	337
484.00803	338
484.52444	333
485.04086	318
485.55728	351
486.07367	318
486.59006	325
487.10645	316
487.62283	343
488.13919	338
488.65555	335
489.17191	321
489.68826	307
490.20459	322
490.72092	342
491.23724	342
491.75354	334
492.26984	344
492.78613	333
493.30243	335
493.8187	326
494.33496	354
494.85123	358
495.36746	354
495.8837	345
496.39993	370
496.91617	346
497.43237	356
497.94858	372
498.46478	359
498.98096	366
499.49713	349
500.01331	358
500.52945	358
501.04562	356
501.56174	370
502.07788	356
502.59399	397
503.11011	358
503.62622	358
504.1423	365
504.65839	327
505.17447	370
505.69052	349
506.20657	350
506.72263	334
507.23865	367
507.75467	352
508.27069	357
508.78668	359
509.30267	334
509.81866	346
510.33463	343
510.85059	357
511.36655	356
511.88248	353
512.39844	338
512.91437	364
513.43024	344
513.94617	339
514.46204	342
514.97791	349
515.49377	364
516.00964	323
516.52551	339
517.04132	361
517.55719	344
518.073	345
518.58881	356
519.10461	355
519.62036	370
520.13617	342
520.65192	341
521.16766	339
521.68341	363
522.1991	320
522.71484	338
523.23053	342
523.74622	336
524.2619	339
524.77759	344
525.29327	349
525.8089	351
526.32452	358
526.84015	358
527.35577	331
527.8714	346
528.38696	366
528.90259	362
529.41815	332
529.93372	328
530.44922	335
530.96478	339
531.48029	349
531.99579	343
532.51129	334
533.02679	323
533.5423	336
534.05774	348
534.57318	342
535.08862	362
535.60406	328
536.11945	358
536.63489	342
537.15027	336
537.66565	335
538.18097	329
538.69635	354
539.21167	335
539.72699	321
540.24231	369
540.75763	345
541.27289	355
541.78821	333
542.30347	351
542.81873	348
543.33392	345
543.84918	344
544.36438	360
544.87958	311
545.39478	343
545.90991	320
546.42511	361
546.94025	298
547.45538	333
547.97052	365
548.4856	342
549.00073	358
549.51581	334
550.03088	330
550.5459	320
551.06097	349
551.57599	324
552.091	337
552.60602	332
553.12097	324
553.63593	329
554.15094	346
554.66583	348
555.18079	351
555.69568	350
556.21063	341
556.72552	336
557.24036	349
557.75525	321
558.27008	350
558.78491	333
559.29974	353
559.81458	347
560.32935	336
560.84412	348
561.35889	332
561.87366	349
562.38837	352
562.90308	343
563.41779	321
563.9325	298
564.44714	347
564.96179	339
565.47644	360
565.99109	333
566.50574	349
567.02032	340
567.53491	317
568.0495	341
568.56403	347
569.07861	339
569.59314	368
570.1076	322
570.62213	319
571.1366	336
571.65106	344
572.16553	322
572.67999	306
573.1944	337
573.7088	310
574.22321	318
574.73755	346
575.25195	342
575.7663	338
576.28058	335
576.79492	340
577.3092	341
577.82349	335
578.33777	317
578.85205	333
579.36627	309
579.88049	333
580.39471	320
580.90887	302
581.42303	328
581.93719	331
582.45135	339
582.96545	320
583.47955	323
583.99365	343
584.50775	323
585.02179	333
585.53583	348
586.04987	342
586.5639	324
587.07788	331
587.59186	328
588.10583	333
588.61975	324
589.13373	348
589.64758	340
590.1615	317
590.67542	342
591.18927	323
591.70306	334
592.21692	331
592.73071	326
593.24451	315
593.7583	320
594.27209	327
594.78583	309
595.29956	316
595.81323	324
596.32697	339
596.84064	336
597.35425	315
597.86792	333
598.38153	324
598.89514	318
599.40875	315
599.9223	326
600.43585	322
600.9494	312
601.46289	325
601.97638	345
602.48987	331
603.00336	345
603.51678	346
604.03021	327
604.54364	309
605.05701	321
605.57043	323
606.08374	324
606.59711	317
607.11041	332
607.62372	314
608.13702	340
608.65027	356
609.16351	311
609.67676	322
610.19	342
610.70319	330
611.21637	315
611.72949	331
612.24268	330
612.75574	339
613.26886	339
613.78192	337
614.29504	342
614.80804	328
615.32111	338
615.83411	313
616.34711	342
616.86005	327
617.37299	327
617.88593	351
618.39886	324
618.91174	314
619.42462	325
619.9375	334
620.45032	319
620.96313	322
621.47595	336
621.98871	340
622.50146	315
623.01422	318
623.52692	353
624.03967	318
624.55231	307
625.065	307
625.57764	316
626.09027	320
626.60284	321
627.11542	302
627.62799	325
628.14056	331
628.65308	335
629.16559	327
629.6781	314
630.19055	333
630.703	328
631.21539	320
631.72784	330
632.24017	340
632.75256	324
633.26489	333
633.77722	322
634.28955	320
634.80182	330
635.31409	320
635.82635	335
636.33856	332
636.85077	316
637.36292	335
637.87512	321
638.38721	327
638.89935	324
639.41144	316
639.92352	307
640.43561	296
640.94763	325
641.45966	313
641.97162	347
642.48358	319
642.99554	323
643.50751	328
644.01941	309
644.53131	335
645.04315	317
645.55499	308
646.06683	329
646.57861	346
647.09045	317
647.60217	315
648.11395	327
648.62567	310
649.13733	336
649.64905	340
650.16064	344
650.6723	325
651.1839	306
651.6955	308
652.20709	330
652.71863	324
653.23016	311
653.74164	309
654.25311	316
654.76459	298
655.276	316
655.78741	321
656.29883	305
656.81018	318
657.32153	314
657.83289	319
658.34418	327
658.85547	331
659.3667	333
659.87793	330
660.38916	322
660.90033	330
661.4115	338
661.92267	311
662.43378	314
662.94489	358
663.45593	325
663.96698	330
664.47803	317
664.98907	319
665.50006	326
666.01099	307
666.52191	311
667.03284	319
667.54376	321
668.05463	330
668.56549	315
669.07629	328
669.5871	337
670.0979	322
670.60864	321
671.11938	316
671.63007	332
672.14075	333
672.65143	315
673.16205	309
673.67267	335
674.18329	342
674.69385	327
675.20435	346
675.7149	328
676.2254	326
676.73584	302
677.24628	320
677.75671	347
678.26715	315
678.77753	308
679.28784	333
679.79822	324
680.30847	304
680.81879	326
681.32904	325
681.83923	339
682.34949	331
682.85968	291
683.36981	323
683.87994	333
684.39008	301
684.90015	315
685.41022	330
685.92023	308
686.43024	333
686.94025	317
687.4502	299
687.96014	308
688.47003	316
688.97992	309
689.48981	325
689.99963	326
690.50946	321
691.01923	321
691.52899	331
692.03876	337
692.54846	334
693.05817	316
693.56781	317
694.07745	314
694.58704	316
695.09662	321
695.6062	312
696.11572	310
696.62524	332
697.1347	303
697.64417	315
698.15363	318
698.66302	310
699.17242	331
699.68176	319
700.1911	328
700.70044	315
701.20972	304
701.71893	324
702.22815	307
702.73737	319
703.24652	330
703.75568	334
704.26483	334
704.77393	336
705.28302	298
705.79205	324
706.30103	299
706.81006	312
707.31903	316
707.82794	315
708.33685	321
708.84576	324
709.35461	305
709.86346	310
710.37225	316
710.88104	301
711.38977	322
711.8985	315
712.40723	330
712.91589	333
713.42456	304
713.93317	317
714.44177	323
714.95032	302
715.45886	318
715.96735	327
716.47583	323
716.98431	316
717.49274	322
718.00116	329
718.50952	291
719.01788	324
719.52618	302
720.03448	320
720.54272	309
721.05096	344
721.5592	311
722.06738	309
722.57556	306
723.08368	307
723.59174	306
724.09985	326
724.60791	335
725.11591	304
725.6239	311
726.13184	314
726.63977	323
727.14771	310
727.65558	312
728.16339	334
728.67126	312
729.17902	326
729.68683	331
730.19452	320
730.70227	310
731.2099	345
731.71759	316
732.22522	311
732.73279	315
733.24036	340
733.74792	301
734.25543	328
734.76288	323
735.27032	302
735.77777	314
736.28516	299
736.79254	321
737.29987	325
737.80719	324
738.31445	309
738.82172	304
739.32892	317
739.83612	330
740.34326	318
740.8504	302
741.35748	315
741.86456	336
742.37164	338
742.87866	321
743.38562	310
743.89258	344
744.39954	310
744.90643	315
745.41327	321
745.9201	317
746.42694	339
746.93372	310
747.44049	320
747.9472	326
748.45386	336
748.96057	329
749.46716	337
749.97375	312
750.48035	324
750.98688	309
751.49341	325
751.99988	301
752.50635	322
753.01276	327
753.51917	318
754.02551	297
754.53186	292
755.03815	301
755.54443	320
756.05066	306
756.55688	330
757.06305	312
757.56921	334
758.07532	333
758.58142	324
759.08746	322
759.59351	298
760.09949	307
760.60547	322
761.11139	333
761.61725	322
762.12317	325
762.62897	327
763.13483	321
763.64056	320
764.1463	323
764.65204	294
765.15771	329
765.66339	327
766.16901	306
766.67462	310
767.18018	324
767.68567	322
768.19116	324
768.69666	317
769.20209	311
769.70746	311
770.21283	334
770.7182	297
771.22351	320
771.72876	299
772.23401	309
772.73926	327
773.24445	326
773.74957	329
774.2547	317
774.75977	317
775.26483	313
775.76984	329
776.27484	321
776.77979	318
777.28473	337
777.78961	318
778.29449	311
778.79932	297
779.30408	305
779.80884	320
780.3136	309
780.8183	311
781.32294	324
781.82758	313
782.33215	303
782.83673	309
783.34131	323
783.84576	298
784.35028	319
784.85468	326
785.35907	323
785.86346	314
786.3678	332
786.87213	304
787.3764	325
787.88062	319
788.38483	293
788.88898	326
789.39313	334
789.89722	312
790.40131	321
790.90533	329
791.40936	324
791.91333	314
792.4173	315
792.9212	327
793.42505	322
793.92889	321
794.43268	307
794.93646	300
795.44019	320
795.94391	304
796.44757	316
796.95123	325
797.45483	323
797.95837	314
798.46191	323
798.96539	299
799.46887	319
799.97235	303
800.47571	316
800.97906	308
801.48242	310
801.98572	314
802.48895	316
802.99219	300
803.49536	329
803.99854	352
804.50165	330
805.00476	318
805.50781	321
806.01086	325
806.51379	315
807.01678	310
807.51971	326
808.02258	310
808.52539	320
809.02826	321
809.53101	296
810.03375	332
810.53644	331
811.03912	319
811.54175	311
812.04437	312
812.54694	316
813.04944	318
813.55194	311
814.05444	305
814.55682	324
815.05927	316
815.56158	323
816.0639	330
816.56622	306
817.06842	323
817.57068	330
818.07281	347
818.57495	321
819.07709	319
819.57916	329
820.08118	320
820.58319	318
821.08514	324
821.5871	305
822.08899	346
822.59082	1687
823.09265	313
823.59442	324
824.09619	300
824.5979	300
825.09955	322
825.6012	314
826.10278	310
826.60437	310
827.1059	328
827.60736	305
828.10883	317
828.61023	322
829.11163	326
829.61298	318
830.11432	309
830.61554	317
831.11682	299
831.61798	335
832.11914	333
832.6203	318
833.1214	311
833.62244	299
834.12347	302
834.62445	335
835.12537	324
835.62628	323
836.12714	317
836.62799	307
837.12878	316
837.62952	313
838.13025	293
838.63092	298
839.13153	324
839.63214	315
840.13275	322
840.63324	328
841.13373	322
841.63422	338
842.13464	296
842.63501	312
843.13538	328
843.63568	334
844.13593	296
844.63617	327
845.13635	309
845.63647	315
846.1366	308
846.63672	320
847.13672	318
847.63672	310
848.13672	306
848.6366	320
849.13647	318
849.63635	322
850.13617	323
850.63593	306
851.13568	323
851.63538	324
852.13501	313
852.63464	310
853.13422	329
853.63373	295
854.13324	323
854.63275	326
855.13214	309
855.63153	311
856.13086	305
856.63019	313
857.12946	317
857.62866	330
858.12787	327
858.62701	319
859.12616	325
859.62524	308
860.12427	329
860.62323	331
861.12219	320
861.62109	320
862.12	323
862.61884	317
863.11761	325
863.61639	318
864.11511	337
864.61377	311
865.11243	328
865.61102	311
866.10962	319
866.60809	310
867.10663	300
867.60504	314
868.10345	317
868.60181	318
869.10016	318
869.59839	319
870.09668	345
870.59485	351
871.09302	374
871.59113	406
872.08923	437
872.58728	432
873.08527	422
873.58325	443
874.08118	418
874.57904	442
875.0769	439
875.57465	411
876.07245	447
876.57013	454
877.06781	476
877.56549	448
878.06305	430
878.56061	428
879.05817	456
879.5556	434
880.05304	433
880.55042	453
881.04779	452
881.5451	443
882.04236	462
882.53961	439
883.0368	447
883.53394	443
884.03107	461
884.52808	472
885.02515	449
