Date and Time:                Sun Nov 2 14:49:45.331 2025
Software Version:             4.30.30000.0
Temperature (C):              -90
Model:                        DU971P_UVB
Data Type:                    Counts
Acquisition Mode:             Single Scan
Trigger Mode:                 Internal
Exposure Time (secs):         30
Readout Mode:                 Full Vertical Binning
Horizontal binning:           2
Extended Dynamic Range:       off
Horizontally flipped:         false
Vertical Shift Speed (usecs): 9.68
Pixel Readout Rate (MHz):     3
Baseline Clamp:               ON
Clock Amplitude:              Normal
Output Amplifier:             Conventional
Serial Number:                20367
Pre-Amplifier Gain:           4x
Spurious Noise Filter Mode:   No Filter
Photon counted:               false
Data Averaging Filter Mode:   No Filter
SR193i:
Serial Number:                SR-2646
Wavelength (nm):              690
Grating Groove Density (l/mm):300
Grating Blaze:                500nm
Input Side Slit Width (um):   1000



478.32681	300
478.84332	366
479.35983	382
479.87631	365
480.39282	356
480.9093	352
481.42575	367
481.94223	360
482.45868	366
482.97513	385
483.49158	365
484.00803	411
484.52444	388
485.04086	415
485.55728	383
486.07367	398
486.59006	390
487.10645	421
487.62283	440
488.13919	442
488.65555	425
489.17191	434
489.68826	464
490.20459	434
490.72092	468
491.23724	466
491.75354	466
492.26984	477
492.78613	485
493.30243	517
493.8187	539
494.33496	472
494.85123	514
495.36746	504
495.8837	526
496.39993	505
496.91617	544
497.43237	516
497.94858	596
498.46478	550
498.98096	529
499.49713	538
500.01331	570
500.52945	577
501.04562	553
501.56174	593
502.07788	578
502.59399	541
503.11011	575
503.62622	546
504.1423	573
504.65839	547
505.17447	572
505.69052	567
506.20657	560
506.72263	589
507.23865	553
507.75467	583
508.27069	560
508.78668	559
509.30267	566
509.81866	538
510.33463	558
510.85059	502
511.36655	577
511.88248	532
512.39844	586
512.91437	541
513.43024	566
513.94617	549
514.46204	542
514.97791	570
515.49377	515
516.00964	525
516.52551	524
517.04132	513
517.55719	516
518.073	506
518.58881	539
519.10461	562
519.62036	516
520.13617	487
520.65192	508
521.16766	536
521.68341	531
522.1991	494
522.71484	508
523.23053	469
523.74622	496
524.2619	501
524.77759	499
525.29327	497
525.8089	478
526.32452	471
526.84015	506
527.35577	494
527.8714	515
528.38696	497
528.90259	490
529.41815	495
529.93372	493
530.44922	485
530.96478	502
531.48029	463
531.99579	468
532.51129	493
533.02679	467
533.5423	486
534.05774	486
534.57318	456
535.08862	487
535.60406	458
536.11945	481
536.63489	468
537.15027	453
537.66565	474
538.18097	488
538.69635	467
539.21167	491
539.72699	456
540.24231	492
540.75763	483
541.27289	422
541.78821	429
542.30347	509
542.81873	475
543.33392	495
543.84918	459
544.36438	505
544.87958	476
545.39478	470
545.90991	460
546.42511	494
546.94025	475
547.45538	484
547.97052	459
548.4856	476
549.00073	478
549.51581	477
550.03088	474
550.5459	460
551.06097	456
551.57599	464
552.091	446
552.60602	479
553.12097	472
553.63593	481
554.15094	465
554.66583	449
555.18079	483
555.69568	452
556.21063	443
556.72552	462
557.24036	455
557.75525	470
558.27008	448
558.78491	475
559.29974	459
559.81458	471
560.32935	486
560.84412	454
561.35889	452
561.87366	487
562.38837	481
562.90308	456
563.41779	497
563.9325	464
564.44714	491
564.96179	508
565.47644	477
565.99109	492
566.50574	485
567.02032	470
567.53491	488
568.0495	500
568.56403	480
569.07861	528
569.59314	506
570.1076	464
570.62213	499
571.1366	483
571.65106	469
572.16553	504
572.67999	506
573.1944	529
573.7088	489
574.22321	525
574.73755	548
575.25195	511
575.7663	521
576.28058	547
576.79492	540
577.3092	540
577.82349	534
578.33777	532
578.85205	577
579.36627	526
579.88049	517
580.39471	524
580.90887	540
581.42303	552
581.93719	539
582.45135	555
582.96545	549
583.47955	543
583.99365	559
584.50775	573
585.02179	554
585.53583	543
586.04987	539
586.5639	566
587.07788	583
587.59186	577
588.10583	597
588.61975	585
589.13373	610
589.64758	583
590.1615	608
590.67542	582
591.18927	591
591.70306	556
592.21692	610
592.73071	602
593.24451	585
593.7583	605
594.27209	647
594.78583	610
595.29956	576
595.81323	595
596.32697	609
596.84064	612
597.35425	591
597.86792	619
598.38153	589
598.89514	608
599.40875	577
599.9223	617
600.43585	676
600.9494	608
601.46289	567
601.97638	592
602.48987	589
603.00336	651
603.51678	614
604.03021	621
604.54364	636
605.05701	614
605.57043	607
606.08374	592
606.59711	631
607.11041	576
607.62372	615
608.13702	591
608.65027	612
609.16351	631
609.67676	611
610.19	677
610.70319	627
611.21637	599
611.72949	636
612.24268	566
612.75574	628
613.26886	596
613.78192	641
614.29504	581
614.80804	610
615.32111	598
615.83411	606
616.34711	649
616.86005	587
617.37299	649
617.88593	620
618.39886	601
618.91174	625
619.42462	638
619.9375	609
620.45032	588
620.96313	626
621.47595	574
621.98871	654
622.50146	632
623.01422	625
623.52692	655
624.03967	605
624.55231	592
625.065	627
625.57764	589
626.09027	618
626.60284	592
627.11542	547
627.62799	624
628.14056	610
628.65308	592
629.16559	554
629.6781	599
630.19055	565
630.703	623
631.21539	608
631.72784	533
632.24017	586
632.75256	609
633.26489	585
633.77722	587
634.28955	605
634.80182	581
635.31409	580
635.82635	600
636.33856	621
636.85077	580
637.36292	598
637.87512	583
638.38721	592
638.89935	578
639.41144	594
639.92352	561
640.43561	571
640.94763	585
641.45966	583
641.97162	578
642.48358	544
642.99554	559
643.50751	573
644.01941	584
644.53131	597
645.04315	580
645.55499	594
646.06683	556
646.57861	567
647.09045	541
647.60217	544
648.11395	564
648.62567	560
649.13733	579
649.64905	582
650.16064	539
650.6723	570
651.1839	618
651.6955	570
652.20709	565
652.71863	553
653.23016	553
653.74164	540
654.25311	571
654.76459	525
655.276	533
655.78741	543
656.29883	550
656.81018	534
657.32153	540
657.83289	549
658.34418	558
658.85547	518
659.3667	555
659.87793	516
660.38916	533
660.90033	538
661.4115	515
661.92267	533
662.43378	523
662.94489	520
663.45593	529
663.96698	544
664.47803	498
664.98907	509
665.50006	536
666.01099	509
666.52191	506
667.03284	541
667.54376	499
668.05463	527
668.56549	505
669.07629	508
669.5871	547
670.0979	523
670.60864	478
671.11938	506
671.63007	504
672.14075	496
672.65143	546
673.16205	516
673.67267	479
674.18329	490
674.69385	506
675.20435	552
675.7149	522
676.2254	505
676.73584	495
677.24628	529
677.75671	507
678.26715	504
678.77753	506
679.28784	497
679.79822	517
680.30847	508
680.81879	491
681.32904	500
681.83923	501
682.34949	475
682.85968	499
683.36981	477
683.87994	512
684.39008	522
684.90015	481
685.41022	471
685.92023	487
686.43024	456
686.94025	457
687.4502	474
687.96014	442
688.47003	476
688.97992	459
689.48981	465
689.99963	450
690.50946	463
691.01923	446
691.52899	489
692.03876	461
692.54846	449
693.05817	439
693.56781	433
694.07745	439
694.58704	447
695.09662	434
695.6062	437
696.11572	428
696.62524	404
697.1347	455
697.64417	435
698.15363	413
698.66302	442
699.17242	449
699.68176	437
700.1911	404
700.70044	405
701.20972	442
701.71893	434
702.22815	398
702.73737	409
703.24652	403
703.75568	428
704.26483	418
704.77393	440
705.28302	426
705.79205	419
706.30103	390
706.81006	418
707.31903	429
707.82794	437
708.33685	402
708.84576	415
709.35461	406
709.86346	403
710.37225	404
710.88104	422
711.38977	403
711.8985	394
712.40723	407
712.91589	421
713.42456	399
713.93317	394
714.44177	382
714.95032	389
715.45886	398
715.96735	408
716.47583	406
716.98431	389
717.49274	385
718.00116	403
718.50952	415
719.01788	378
719.52618	398
720.03448	399
720.54272	392
721.05096	403
721.5592	395
722.06738	401
722.57556	387
723.08368	392
723.59174	371
724.09985	386
724.60791	384
725.11591	399
725.6239	387
726.13184	356
726.63977	392
727.14771	364
727.65558	384
728.16339	382
728.67126	384
729.17902	387
729.68683	397
730.19452	383
730.70227	358
731.2099	368
731.71759	391
732.22522	383
732.73279	362
733.24036	378
733.74792	398
734.25543	409
734.76288	424
735.27032	376
735.77777	381
736.28516	376
736.79254	370
737.29987	383
737.80719	392
738.31445	406
738.82172	355
739.32892	368
739.83612	373
740.34326	357
740.8504	391
741.35748	338
741.86456	403
742.37164	356
742.87866	405
743.38562	368
743.89258	386
744.39954	371
744.90643	345
745.41327	361
745.9201	369
746.42694	383
746.93372	375
747.44049	379
747.9472	352
748.45386	377
748.96057	370
749.46716	340
749.97375	387
750.48035	372
750.98688	361
751.49341	366
751.99988	354
752.50635	345
753.01276	379
753.51917	372
754.02551	359
754.53186	357
755.03815	347
755.54443	360
756.05066	370
756.55688	322
757.06305	366
757.56921	384
758.07532	353
758.58142	378
759.08746	370
759.59351	358
760.09949	357
760.60547	369
761.11139	369
761.61725	336
762.12317	352
762.62897	348
763.13483	348
763.64056	372
764.1463	346
764.65204	344
765.15771	331
765.66339	350
766.16901	349
766.67462	361
767.18018	356
767.68567	355
768.19116	355
768.69666	359
769.20209	362
769.70746	345
770.21283	338
770.7182	341
771.22351	365
771.72876	362
772.23401	334
772.73926	352
773.24445	363
773.74957	331
774.2547	358
774.75977	335
775.26483	336
775.76984	361
776.27484	356
776.77979	351
777.28473	330
777.78961	335
778.29449	359
778.79932	345
779.30408	347
779.80884	348
780.3136	347
780.8183	345
781.32294	346
781.82758	367
782.33215	356
782.83673	322
783.34131	341
783.84576	349
784.35028	352
784.85468	327
785.35907	337
785.86346	350
786.3678	339
786.87213	338
787.3764	333
787.88062	331
788.38483	342
788.88898	342
789.39313	345
789.89722	339
790.40131	345
790.90533	347
791.40936	343
791.91333	345
792.4173	343
792.9212	328
793.42505	341
793.92889	330
794.43268	329
794.93646	298
795.44019	353
795.94391	333
796.44757	321
796.95123	332
797.45483	320
797.95837	325
798.46191	363
798.96539	349
799.46887	312
799.97235	308
800.47571	350
800.97906	335
801.48242	347
801.98572	337
802.48895	312
802.99219	310
803.49536	323
803.99854	328
804.50165	325
805.00476	321
805.50781	333
806.01086	363
806.51379	330
807.01678	332
807.51971	345
808.02258	344
808.52539	342
809.02826	321
809.53101	317
810.03375	324
810.53644	335
811.03912	333
811.54175	334
812.04437	339
812.54694	322
813.04944	338
813.55194	331
814.05444	319
814.55682	329
815.05927	328
815.56158	349
816.0639	336
816.56622	302
817.06842	329
817.57068	329
818.07281	339
818.57495	338
819.07709	331
819.57916	311
820.08118	331
820.58319	336
821.08514	323
821.5871	317
822.08899	333
822.59082	335
823.09265	345
823.59442	309
824.09619	340
824.5979	343
825.09955	323
825.6012	342
826.10278	336
826.60437	338
827.1059	326
827.60736	332
828.10883	307
828.61023	332
829.11163	328
829.61298	330
830.11432	309
830.61554	334
831.11682	316
831.61798	348
832.11914	320
832.6203	354
833.1214	352
833.62244	319
834.12347	332
834.62445	316
835.12537	334
835.62628	337
836.12714	315
836.62799	337
837.12878	337
837.62952	320
838.13025	340
838.63092	349
839.13153	332
839.63214	314
840.13275	354
840.63324	326
841.13373	348
841.63422	321
842.13464	325
842.63501	342
843.13538	336
843.63568	317
844.13593	308
844.63617	321
845.13635	327
845.63647	313
846.1366	328
846.63672	319
847.13672	327
847.63672	331
848.13672	339
848.6366	336
849.13647	330
849.63635	340
850.13617	336
850.63593	332
851.13568	318
851.63538	329
852.13501	330
852.63464	347
853.13422	333
853.63373	317
854.13324	342
854.63275	332
855.13214	337
855.63153	325
856.13086	337
856.63019	347
857.12946	315
857.62866	329
858.12787	323
858.62701	327
859.12616	306
859.62524	311
860.12427	293
860.62323	325
861.12219	305
861.62109	326
862.12	325
862.61884	325
863.11761	326
863.61639	331
864.11511	335
864.61377	331
865.11243	319
865.61102	327
866.10962	351
866.60809	341
867.10663	329
867.60504	346
868.10345	333
868.60181	349
869.10016	328
869.59839	370
870.09668	389
870.59485	483
871.09302	532
871.59113	670
872.08923	731
872.58728	779
873.08527	773
873.58325	847
874.08118	950
874.57904	944
875.0769	909
875.57465	855
876.07245	907
876.57013	955
877.06781	896
877.56549	932
878.06305	982
878.56061	957
879.05817	897
879.5556	892
880.05304	979
880.55042	968
881.04779	978
881.5451	1013
882.04236	951
882.53961	977
883.0368	965
883.53394	911
884.03107	962
884.52808	989
885.02515	935
