Date and Time:                Sun Nov 2 14:52:29.283 2025
Software Version:             4.30.30000.0
Temperature (C):              -90
Model:                        DU971P_UVB
Data Type:                    Counts
Acquisition Mode:             Single Scan
Trigger Mode:                 Internal
Exposure Time (secs):         30
Readout Mode:                 Full Vertical Binning
Horizontal binning:           2
Extended Dynamic Range:       off
Horizontally flipped:         false
Vertical Shift Speed (usecs): 9.68
Pixel Readout Rate (MHz):     3
Baseline Clamp:               ON
Clock Amplitude:              Normal
Output Amplifier:             Conventional
Serial Number:                20367
Pre-Amplifier Gain:           4x
Spurious Noise Filter Mode:   No Filter
Photon counted:               false
Data Averaging Filter Mode:   No Filter
SR193i:
Serial Number:                SR-2646
Wavelength (nm):              690
Grating Groove Density (l/mm):300
Grating Blaze:                500nm
Input Side Slit Width (um):   1000



478.32681	329
478.84332	352
479.35983	359
479.87631	385
480.39282	381
480.9093	366
481.42575	368
481.94223	373
482.45868	353
482.97513	387
483.49158	355
484.00803	415
484.52444	365
485.04086	398
485.55728	373
486.07367	387
486.59006	406
487.10645	433
487.62283	424
488.13919	420
488.65555	437
489.17191	431
489.68826	427
490.20459	431
490.72092	475
491.23724	447
491.75354	448
492.26984	485
492.78613	477
493.30243	505
493.8187	497
494.33496	489
494.85123	499
495.36746	531
495.8837	506
496.39993	520
496.91617	534
497.43237	508
497.94858	550
498.46478	521
498.98096	528
499.49713	558
500.01331	563
500.52945	544
501.04562	527
501.56174	571
502.07788	529
502.59399	535
503.11011	540
503.62622	555
504.1423	530
504.65839	507
505.17447	532
505.69052	535
506.20657	537
506.72263	537
507.23865	584
507.75467	547
508.27069	571
508.78668	529
509.30267	542
509.81866	572
510.33463	511
510.85059	549
511.36655	547
511.88248	567
512.39844	499
512.91437	509
513.43024	552
513.94617	528
514.46204	532
514.97791	562
515.49377	516
516.00964	505
516.52551	511
517.04132	512
517.55719	506
518.073	501
518.58881	526
519.10461	485
519.62036	521
520.13617	515
520.65192	496
521.16766	518
521.68341	471
522.1991	480
522.71484	482
523.23053	499
523.74622	494
524.2619	497
524.77759	518
525.29327	482
525.8089	511
526.32452	487
526.84015	477
527.35577	495
527.8714	481
528.38696	469
528.90259	504
529.41815	473
529.93372	528
530.44922	470
530.96478	488
531.48029	504
531.99579	455
532.51129	488
533.02679	451
533.5423	471
534.05774	455
534.57318	491
535.08862	486
535.60406	449
536.11945	475
536.63489	484
537.15027	476
537.66565	480
538.18097	457
538.69635	497
539.21167	461
539.72699	483
540.24231	480
540.75763	502
541.27289	450
541.78821	446
542.30347	469
542.81873	465
543.33392	461
543.84918	450
544.36438	449
544.87958	487
545.39478	467
545.90991	459
546.42511	467
546.94025	466
547.45538	466
547.97052	454
548.4856	488
549.00073	467
549.51581	491
550.03088	451
550.5459	498
551.06097	431
551.57599	483
552.091	440
552.60602	439
553.12097	465
553.63593	446
554.15094	438
554.66583	492
555.18079	491
555.69568	459
556.21063	475
556.72552	455
557.24036	467
557.75525	469
558.27008	474
558.78491	476
559.29974	438
559.81458	464
560.32935	474
560.84412	495
561.35889	441
561.87366	490
562.38837	463
562.90308	475
563.41779	508
563.9325	470
564.44714	490
564.96179	457
565.47644	484
565.99109	462
566.50574	467
567.02032	484
567.53491	520
568.0495	495
568.56403	519
569.07861	515
569.59314	501
570.1076	477
570.62213	485
571.1366	473
571.65106	521
572.16553	476
572.67999	512
573.1944	487
573.7088	506
574.22321	491
574.73755	511
575.25195	516
575.7663	507
576.28058	533
576.79492	504
577.3092	495
577.82349	518
578.33777	507
578.85205	513
579.36627	541
579.88049	574
580.39471	541
580.90887	556
581.42303	550
581.93719	518
582.45135	540
582.96545	540
583.47955	499
583.99365	567
584.50775	557
585.02179	546
585.53583	556
586.04987	552
586.5639	558
587.07788	561
587.59186	580
588.10583	557
588.61975	575
589.13373	582
589.64758	589
590.1615	592
590.67542	571
591.18927	552
591.70306	589
592.21692	558
592.73071	608
593.24451	582
593.7583	613
594.27209	563
594.78583	594
595.29956	578
595.81323	598
596.32697	612
596.84064	612
597.35425	595
597.86792	612
598.38153	582
598.89514	558
599.40875	630
599.9223	615
600.43585	571
600.9494	575
601.46289	604
601.97638	607
602.48987	655
603.00336	600
603.51678	581
604.03021	629
604.54364	637
605.05701	618
605.57043	585
606.08374	605
606.59711	606
607.11041	635
607.62372	601
608.13702	622
608.65027	594
609.16351	604
609.67676	609
610.19	634
610.70319	579
611.21637	623
611.72949	583
612.24268	633
612.75574	615
613.26886	619
613.78192	613
614.29504	650
614.80804	630
615.32111	555
615.83411	646
616.34711	579
616.86005	582
617.37299	626
617.88593	612
618.39886	616
618.91174	637
619.42462	634
619.9375	626
620.45032	592
620.96313	619
621.47595	580
621.98871	583
622.50146	619
623.01422	633
623.52692	622
624.03967	614
624.55231	623
625.065	582
625.57764	625
626.09027	601
626.60284	591
627.11542	608
627.62799	557
628.14056	632
628.65308	582
629.16559	613
629.6781	578
630.19055	561
630.703	576
631.21539	582
631.72784	598
632.24017	623
632.75256	603
633.26489	577
633.77722	618
634.28955	584
634.80182	588
635.31409	642
635.82635	592
636.33856	590
636.85077	572
637.36292	606
637.87512	566
638.38721	595
638.89935	559
639.41144	570
639.92352	600
640.43561	575
640.94763	574
641.45966	566
641.97162	567
642.48358	561
642.99554	578
643.50751	614
644.01941	594
644.53131	570
645.04315	548
645.55499	622
646.06683	576
646.57861	549
647.09045	564
647.60217	565
648.11395	565
648.62567	549
649.13733	584
649.64905	544
650.16064	518
650.6723	561
651.1839	518
651.6955	557
652.20709	563
652.71863	582
653.23016	567
653.74164	549
654.25311	547
654.76459	529
655.276	547
655.78741	548
656.29883	532
656.81018	555
657.32153	547
657.83289	548
658.34418	541
658.85547	538
659.3667	500
659.87793	510
660.38916	532
660.90033	546
661.4115	504
661.92267	541
662.43378	519
662.94489	509
663.45593	501
663.96698	534
664.47803	547
664.98907	535
665.50006	519
666.01099	539
666.52191	522
667.03284	507
667.54376	466
668.05463	510
668.56549	514
669.07629	480
669.5871	504
670.0979	537
670.60864	513
671.11938	541
671.63007	503
672.14075	498
672.65143	536
673.16205	538
673.67267	521
674.18329	489
674.69385	495
675.20435	486
675.7149	477
676.2254	507
676.73584	494
677.24628	498
677.75671	473
678.26715	492
678.77753	502
679.28784	471
679.79822	500
680.30847	493
680.81879	467
681.32904	523
681.83923	484
682.34949	455
682.85968	501
683.36981	459
683.87994	462
684.39008	431
684.90015	475
685.41022	485
685.92023	440
686.43024	464
686.94025	464
687.4502	447
687.96014	464
688.47003	475
688.97992	453
689.48981	454
689.99963	486
690.50946	431
691.01923	447
691.52899	457
692.03876	452
692.54846	483
693.05817	482
693.56781	460
694.07745	403
694.58704	446
695.09662	451
695.6062	436
696.11572	432
696.62524	445
697.1347	423
697.64417	429
698.15363	449
698.66302	413
699.17242	452
699.68176	422
700.1911	444
700.70044	400
701.20972	430
701.71893	449
702.22815	437
702.73737	420
703.24652	430
703.75568	391
704.26483	431
704.77393	450
705.28302	430
705.79205	420
706.30103	400
706.81006	402
707.31903	396
707.82794	404
708.33685	435
708.84576	431
709.35461	401
709.86346	399
710.37225	387
710.88104	396
711.38977	406
711.8985	409
712.40723	434
712.91589	405
713.42456	417
713.93317	387
714.44177	388
714.95032	392
715.45886	387
715.96735	396
716.47583	386
716.98431	388
717.49274	391
718.00116	411
718.50952	353
719.01788	407
719.52618	414
720.03448	378
720.54272	374
721.05096	418
721.5592	392
722.06738	408
722.57556	389
723.08368	378
723.59174	359
724.09985	398
724.60791	381
725.11591	383
725.6239	389
726.13184	372
726.63977	364
727.14771	387
727.65558	411
728.16339	383
728.67126	382
729.17902	369
729.68683	382
730.19452	383
730.70227	355
731.2099	354
731.71759	389
732.22522	355
732.73279	381
733.24036	360
733.74792	391
734.25543	374
734.76288	409
735.27032	391
735.77777	397
736.28516	370
736.79254	381
737.29987	361
737.80719	359
738.31445	405
738.82172	378
739.32892	378
739.83612	386
740.34326	387
740.8504	376
741.35748	368
741.86456	373
742.37164	382
742.87866	373
743.38562	374
743.89258	377
744.39954	364
744.90643	350
745.41327	353
745.9201	373
746.42694	360
746.93372	383
747.44049	366
747.9472	355
748.45386	359
748.96057	377
749.46716	356
749.97375	364
750.48035	343
750.98688	358
751.49341	363
751.99988	356
752.50635	385
753.01276	340
753.51917	390
754.02551	364
754.53186	356
755.03815	362
755.54443	363
756.05066	343
756.55688	356
757.06305	389
757.56921	376
758.07532	342
758.58142	354
759.08746	364
759.59351	324
760.09949	348
760.60547	347
761.11139	337
761.61725	338
762.12317	347
762.62897	337
763.13483	340
763.64056	359
764.1463	367
764.65204	365
765.15771	363
765.66339	355
766.16901	357
766.67462	348
767.18018	349
767.68567	332
768.19116	367
768.69666	357
769.20209	355
769.70746	352
770.21283	331
770.7182	352
771.22351	901
771.72876	335
772.23401	350
772.73926	350
773.24445	336
773.74957	340
774.2547	346
774.75977	342
775.26483	344
775.76984	340
776.27484	355
776.77979	330
777.28473	314
777.78961	333
778.29449	341
778.79932	337
779.30408	348
779.80884	347
780.3136	368
780.8183	345
781.32294	359
781.82758	352
782.33215	342
782.83673	339
783.34131	326
783.84576	359
784.35028	349
784.85468	343
785.35907	325
785.86346	341
786.3678	295
786.87213	342
787.3764	338
787.88062	366
788.38483	343
788.88898	332
789.39313	315
789.89722	334
790.40131	333
790.90533	332
791.40936	330
791.91333	336
792.4173	349
792.9212	355
793.42505	331
793.92889	327
794.43268	327
794.93646	339
795.44019	303
795.94391	347
796.44757	330
796.95123	367
797.45483	339
797.95837	357
798.46191	323
798.96539	315
799.46887	338
799.97235	321
800.47571	332
800.97906	332
801.48242	335
801.98572	333
802.48895	339
802.99219	340
803.49536	337
803.99854	338
804.50165	344
805.00476	331
805.50781	334
806.01086	322
806.51379	342
807.01678	338
807.51971	339
808.02258	338
808.52539	315
809.02826	320
809.53101	344
810.03375	333
810.53644	326
811.03912	326
811.54175	325
812.04437	330
812.54694	330
813.04944	331
813.55194	328
814.05444	327
814.55682	317
815.05927	334
815.56158	327
816.0639	334
816.56622	332
817.06842	322
817.57068	336
818.07281	339
818.57495	325
819.07709	316
819.57916	316
820.08118	343
820.58319	327
821.08514	332
821.5871	332
822.08899	345
822.59082	341
823.09265	346
823.59442	328
824.09619	327
824.5979	319
825.09955	332
825.6012	326
826.10278	336
826.60437	321
827.1059	332
827.60736	340
828.10883	323
828.61023	325
829.11163	310
829.61298	321
830.11432	327
830.61554	320
831.11682	311
831.61798	323
832.11914	333
832.6203	353
833.1214	334
833.62244	333
834.12347	326
834.62445	312
835.12537	308
835.62628	340
836.12714	324
836.62799	333
837.12878	335
837.62952	346
838.13025	331
838.63092	315
839.13153	327
839.63214	310
840.13275	337
840.63324	314
841.13373	336
841.63422	317
842.13464	314
842.63501	317
843.13538	345
843.63568	320
844.13593	299
844.63617	319
845.13635	339
845.63647	323
846.1366	324
846.63672	331
847.13672	329
847.63672	331
848.13672	336
848.6366	337
849.13647	320
849.63635	338
850.13617	314
850.63593	317
851.13568	329
851.63538	328
852.13501	319
852.63464	335
853.13422	325
853.63373	324
854.13324	323
854.63275	332
855.13214	331
855.63153	324
856.13086	332
856.63019	342
857.12946	333
857.62866	333
858.12787	308
858.62701	311
859.12616	342
859.62524	341
860.12427	330
860.62323	327
861.12219	309
861.62109	324
862.12	334
862.61884	324
863.11761	353
863.61639	332
864.11511	343
864.61377	318
865.11243	330
865.61102	345
866.10962	315
866.60809	320
867.10663	319
867.60504	324
868.10345	337
868.60181	336
869.10016	311
869.59839	347
870.09668	379
870.59485	446
871.09302	561
871.59113	666
872.08923	749
872.58728	811
873.08527	804
873.58325	836
874.08118	872
874.57904	879
875.0769	924
875.57465	916
876.07245	923
876.57013	885
877.06781	941
877.56549	939
878.06305	1009
878.56061	937
879.05817	954
879.5556	971
880.05304	899
880.55042	970
881.04779	931
881.5451	942
882.04236	945
882.53961	980
883.0368	914
883.53394	955
884.03107	984
884.52808	965
885.02515	933
