Date and Time:                Sun Nov 2 14:53:52.035 2025
Software Version:             4.30.30000.0
Temperature (C):              -90
Model:                        DU971P_UVB
Data Type:                    Counts
Acquisition Mode:             Single Scan
Trigger Mode:                 Internal
Exposure Time (secs):         30
Readout Mode:                 Full Vertical Binning
Horizontal binning:           2
Extended Dynamic Range:       off
Horizontally flipped:         false
Vertical Shift Speed (usecs): 9.68
Pixel Readout Rate (MHz):     3
Baseline Clamp:               ON
Clock Amplitude:              Normal
Output Amplifier:             Conventional
Serial Number:                20367
Pre-Amplifier Gain:           4x
Spurious Noise Filter Mode:   No Filter
Photon counted:               false
Data Averaging Filter Mode:   No Filter
SR193i:
Serial Number:                SR-2646
Wavelength (nm):              690
Grating Groove Density (l/mm):300
Grating Blaze:                500nm
Input Side Slit Width (um):   1000



478.32681	320
478.84332	384
479.35983	363
479.87631	350
480.39282	374
480.9093	372
481.42575	360
481.94223	370
482.45868	389
482.97513	352
483.49158	385
484.00803	359
484.52444	404
485.04086	369
485.55728	392
486.07367	385
486.59006	398
487.10645	411
487.62283	412
488.13919	402
488.65555	418
489.17191	424
489.68826	445
490.20459	448
490.72092	456
491.23724	433
491.75354	461
492.26984	486
492.78613	462
493.30243	474
493.8187	496
494.33496	483
494.85123	481
495.36746	483
495.8837	500
496.39993	520
496.91617	513
497.43237	515
497.94858	526
498.46478	555
498.98096	527
499.49713	564
500.01331	536
500.52945	548
501.04562	544
501.56174	558
502.07788	493
502.59399	530
503.11011	530
503.62622	589
504.1423	523
504.65839	542
505.17447	570
505.69052	547
506.20657	519
506.72263	523
507.23865	500
507.75467	536
508.27069	541
508.78668	564
509.30267	575
509.81866	514
510.33463	533
510.85059	516
511.36655	475
511.88248	517
512.39844	559
512.91437	529
513.43024	515
513.94617	526
514.46204	513
514.97791	539
515.49377	521
516.00964	495
516.52551	476
517.04132	540
517.55719	538
518.073	499
518.58881	540
519.10461	535
519.62036	514
520.13617	538
520.65192	520
521.16766	501
521.68341	492
522.1991	502
522.71484	504
523.23053	501
523.74622	496
524.2619	498
524.77759	496
525.29327	507
525.8089	488
526.32452	493
526.84015	492
527.35577	499
527.8714	474
528.38696	471
528.90259	485
529.41815	501
529.93372	487
530.44922	474
530.96478	476
531.48029	471
531.99579	474
532.51129	503
533.02679	494
533.5423	478
534.05774	457
534.57318	503
535.08862	489
535.60406	476
536.11945	491
536.63489	422
537.15027	452
537.66565	445
538.18097	491
538.69635	439
539.21167	466
539.72699	467
540.24231	468
540.75763	475
541.27289	479
541.78821	461
542.30347	469
542.81873	468
543.33392	491
543.84918	488
544.36438	449
544.87958	469
545.39478	454
545.90991	437
546.42511	462
546.94025	434
547.45538	443
547.97052	447
548.4856	447
549.00073	485
549.51581	479
550.03088	458
550.5459	446
551.06097	453
551.57599	469
552.091	442
552.60602	448
553.12097	467
553.63593	469
554.15094	446
554.66583	424
555.18079	464
555.69568	454
556.21063	463
556.72552	468
557.24036	463
557.75525	468
558.27008	463
558.78491	491
559.29974	480
559.81458	482
560.32935	446
560.84412	471
561.35889	475
561.87366	491
562.38837	489
562.90308	475
563.41779	455
563.9325	511
564.44714	497
564.96179	496
565.47644	468
565.99109	441
566.50574	522
567.02032	482
567.53491	456
568.0495	468
568.56403	467
569.07861	498
569.59314	490
570.1076	490
570.62213	478
571.1366	516
571.65106	530
572.16553	512
572.67999	480
573.1944	492
573.7088	483
574.22321	489
574.73755	474
575.25195	526
575.7663	518
576.28058	507
576.79492	498
577.3092	510
577.82349	555
578.33777	509
578.85205	513
579.36627	545
579.88049	537
580.39471	563
580.90887	540
581.42303	558
581.93719	534
582.45135	509
582.96545	522
583.47955	526
583.99365	575
584.50775	569
585.02179	568
585.53583	545
586.04987	580
586.5639	544
587.07788	532
587.59186	589
588.10583	542
588.61975	588
589.13373	604
589.64758	584
590.1615	577
590.67542	558
591.18927	572
591.70306	539
592.21692	572
592.73071	602
593.24451	546
593.7583	577
594.27209	2580
594.78583	2245
595.29956	590
595.81323	584
596.32697	594
596.84064	617
597.35425	614
597.86792	620
598.38153	624
598.89514	611
599.40875	579
599.9223	624
600.43585	598
600.9494	624
601.46289	615
601.97638	620
602.48987	605
603.00336	607
603.51678	556
604.03021	618
604.54364	635
605.05701	604
605.57043	623
606.08374	638
606.59711	625
607.11041	611
607.62372	639
608.13702	597
608.65027	590
609.16351	626
609.67676	557
610.19	622
610.70319	607
611.21637	627
611.72949	620
612.24268	628
612.75574	581
613.26886	616
613.78192	601
614.29504	612
614.80804	593
615.32111	578
615.83411	607
616.34711	601
616.86005	641
617.37299	568
617.88593	577
618.39886	574
618.91174	593
619.42462	579
619.9375	603
620.45032	615
620.96313	613
621.47595	600
621.98871	610
622.50146	638
623.01422	615
623.52692	573
624.03967	609
624.55231	612
625.065	591
625.57764	578
626.09027	571
626.60284	622
627.11542	591
627.62799	622
628.14056	591
628.65308	608
629.16559	610
629.6781	577
630.19055	604
630.703	578
631.21539	585
631.72784	558
632.24017	623
632.75256	585
633.26489	615
633.77722	571
634.28955	597
634.80182	587
635.31409	584
635.82635	584
636.33856	570
636.85077	581
637.36292	587
637.87512	568
638.38721	537
638.89935	564
639.41144	567
639.92352	578
640.43561	574
640.94763	542
641.45966	589
641.97162	578
642.48358	599
642.99554	550
643.50751	591
644.01941	590
644.53131	562
645.04315	564
645.55499	570
646.06683	520
646.57861	521
647.09045	554
647.60217	515
648.11395	578
648.62567	541
649.13733	557
649.64905	576
650.16064	556
650.6723	537
651.1839	537
651.6955	563
652.20709	531
652.71863	552
653.23016	557
653.74164	549
654.25311	553
654.76459	583
655.276	545
655.78741	543
656.29883	533
656.81018	533
657.32153	569
657.83289	558
658.34418	495
658.85547	540
659.3667	475
659.87793	521
660.38916	532
660.90033	528
661.4115	505
661.92267	511
662.43378	515
662.94489	522
663.45593	517
663.96698	531
664.47803	502
664.98907	517
665.50006	521
666.01099	502
666.52191	546
667.03284	515
667.54376	522
668.05463	496
668.56549	509
669.07629	517
669.5871	543
670.0979	529
670.60864	494
671.11938	505
671.63007	452
672.14075	478
672.65143	496
673.16205	518
673.67267	501
674.18329	517
674.69385	476
675.20435	491
675.7149	495
676.2254	506
676.73584	480
677.24628	495
677.75671	477
678.26715	479
678.77753	490
679.28784	480
679.79822	488
680.30847	487
680.81879	501
681.32904	476
681.83923	467
682.34949	486
682.85968	492
683.36981	462
683.87994	490
684.39008	494
684.90015	420
685.41022	441
685.92023	467
686.43024	477
686.94025	462
687.4502	446
687.96014	466
688.47003	491
688.97992	466
689.48981	457
689.99963	463
690.50946	421
691.01923	466
691.52899	446
692.03876	470
692.54846	453
693.05817	433
693.56781	443
694.07745	456
694.58704	464
695.09662	437
695.6062	463
696.11572	438
696.62524	474
697.1347	414
697.64417	429
698.15363	434
698.66302	445
699.17242	450
699.68176	420
700.1911	436
700.70044	436
701.20972	445
701.71893	419
702.22815	425
702.73737	449
703.24652	395
703.75568	440
704.26483	424
704.77393	429
705.28302	428
705.79205	395
706.30103	403
706.81006	418
707.31903	410
707.82794	396
708.33685	419
708.84576	434
709.35461	409
709.86346	419
710.37225	412
710.88104	388
711.38977	399
711.8985	412
712.40723	391
712.91589	388
713.42456	383
713.93317	394
714.44177	419
714.95032	382
715.45886	415
715.96735	372
716.47583	394
716.98431	398
717.49274	382
718.00116	414
718.50952	407
719.01788	384
719.52618	383
720.03448	396
720.54272	390
721.05096	373
721.5592	391
722.06738	392
722.57556	404
723.08368	393
723.59174	386
724.09985	418
724.60791	362
725.11591	402
725.6239	372
726.13184	361
726.63977	380
727.14771	365
727.65558	406
728.16339	377
728.67126	362
729.17902	382
729.68683	384
730.19452	379
730.70227	365
731.2099	381
731.71759	363
732.22522	373
732.73279	390
733.24036	368
733.74792	379
734.25543	383
734.76288	384
735.27032	371
735.77777	369
736.28516	396
736.79254	363
737.29987	367
737.80719	408
738.31445	372
738.82172	385
739.32892	367
739.83612	381
740.34326	355
740.8504	374
741.35748	370
741.86456	356
742.37164	353
742.87866	360
743.38562	369
743.89258	373
744.39954	367
744.90643	374
745.41327	371
745.9201	393
746.42694	365
746.93372	375
747.44049	390
747.9472	375
748.45386	353
748.96057	372
749.46716	386
749.97375	352
750.48035	346
750.98688	371
751.49341	362
751.99988	389
752.50635	342
753.01276	344
753.51917	371
754.02551	342
754.53186	355
755.03815	330
755.54443	367
756.05066	361
756.55688	343
757.06305	372
757.56921	349
758.07532	375
758.58142	349
759.08746	361
759.59351	370
760.09949	344
760.60547	344
761.11139	380
761.61725	335
762.12317	371
762.62897	377
763.13483	360
763.64056	359
764.1463	342
764.65204	368
765.15771	353
765.66339	328
766.16901	356
766.67462	347
767.18018	363
767.68567	351
768.19116	353
768.69666	340
769.20209	331
769.70746	341
770.21283	348
770.7182	319
771.22351	339
771.72876	367
772.23401	348
772.73926	357
773.24445	350
773.74957	358
774.2547	355
774.75977	342
775.26483	343
775.76984	353
776.27484	327
776.77979	332
777.28473	338
777.78961	341
778.29449	351
778.79932	364
779.30408	352
779.80884	345
780.3136	326
780.8183	362
781.32294	367
781.82758	335
782.33215	349
782.83673	355
783.34131	328
783.84576	329
784.35028	333
784.85468	318
785.35907	338
785.86346	332
786.3678	323
786.87213	322
787.3764	341
787.88062	341
788.38483	330
788.88898	319
789.39313	355
789.89722	348
790.40131	342
790.90533	355
791.40936	337
791.91333	336
792.4173	326
792.9212	335
793.42505	319
793.92889	352
794.43268	326
794.93646	328
795.44019	344
795.94391	329
796.44757	321
796.95123	325
797.45483	343
797.95837	347
798.46191	330
798.96539	326
799.46887	316
799.97235	324
800.47571	341
800.97906	341
801.48242	332
801.98572	326
802.48895	330
802.99219	317
803.49536	349
803.99854	320
804.50165	309
805.00476	338
805.50781	337
806.01086	331
806.51379	324
807.01678	321
807.51971	335
808.02258	316
808.52539	303
809.02826	328
809.53101	313
810.03375	323
810.53644	347
811.03912	353
811.54175	328
812.04437	331
812.54694	348
813.04944	314
813.55194	321
814.05444	319
814.55682	318
815.05927	336
815.56158	344
816.0639	342
816.56622	332
817.06842	313
817.57068	305
818.07281	322
818.57495	324
819.07709	331
819.57916	313
820.08118	320
820.58319	318
821.08514	322
821.5871	323
822.08899	324
822.59082	315
823.09265	327
823.59442	311
824.09619	354
824.5979	318
825.09955	337
825.6012	341
826.10278	321
826.60437	329
827.1059	334
827.60736	320
828.10883	345
828.61023	326
829.11163	331
829.61298	317
830.11432	318
830.61554	324
831.11682	314
831.61798	330
832.11914	321
832.6203	284
833.1214	344
833.62244	330
834.12347	343
834.62445	324
835.12537	330
835.62628	344
836.12714	350
836.62799	321
837.12878	347
837.62952	340
838.13025	303
838.63092	335
839.13153	337
839.63214	340
840.13275	340
840.63324	332
841.13373	337
841.63422	321
842.13464	329
842.63501	328
843.13538	347
843.63568	359
844.13593	326
844.63617	303
845.13635	316
845.63647	332
846.1366	348
846.63672	338
847.13672	328
847.63672	329
848.13672	303
848.6366	320
849.13647	335
849.63635	332
850.13617	360
850.63593	338
851.13568	305
851.63538	331
852.13501	328
852.63464	325
853.13422	332
853.63373	311
854.13324	316
854.63275	338
855.13214	331
855.63153	330
856.13086	343
856.63019	300
857.12946	321
857.62866	325
858.12787	337
858.62701	324
859.12616	300
859.62524	313
860.12427	333
860.62323	332
861.12219	315
861.62109	344
862.12	312
862.61884	332
863.11761	313
863.61639	327
864.11511	344
864.61377	342
865.11243	332
865.61102	336
866.10962	336
866.60809	320
867.10663	307
867.60504	324
868.10345	307
868.60181	322
869.10016	347
869.59839	345
870.09668	394
870.59485	440
871.09302	562
871.59113	641
872.08923	772
872.58728	781
873.08527	818
873.58325	835
874.08118	878
874.57904	894
875.0769	952
875.57465	982
876.07245	949
876.57013	922
877.06781	910
877.56549	1004
878.06305	940
878.56061	916
879.05817	927
879.5556	911
880.05304	929
880.55042	953
881.04779	921
881.5451	946
882.04236	944
882.53961	899
883.0368	942
883.53394	915
884.03107	1006
884.52808	996
885.02515	881
