Date and Time:                Thu Oct 30 08:30:49.328 2025
Software Version:             4.30.30000.0
Unstabilized Temperature (C): -90.28
Model:                        DU971P_UVB
Data Type:                    Counts
Acquisition Mode:             Single Scan
Trigger Mode:                 Internal
Exposure Time (secs):         30
Readout Mode:                 Full Vertical Binning
Horizontal binning:           2
Extended Dynamic Range:       off
Horizontally flipped:         false
Vertical Shift Speed (usecs): 9.68
Pixel Readout Rate (MHz):     3
Baseline Clamp:               ON
Clock Amplitude:              Normal
Output Amplifier:             Conventional
Serial Number:                20367
Pre-Amplifier Gain:           4x
Spurious Noise Filter Mode:   No Filter
Photon counted:               false
Data Averaging Filter Mode:   No Filter
SR193i:
Serial Number:                SR-2646
Wavelength (nm):              690
Grating Groove Density (l/mm):300
Grating Blaze:                500nm
Input Side Slit Width (um):   1000



478.32681	270
478.84332	328
479.35983	312
479.87631	334
480.39282	311
480.9093	301
481.42575	317
481.94223	309
482.45868	307
482.97513	320
483.49158	322
484.00803	322
484.52444	326
485.04086	308
485.55728	332
486.07367	321
486.59006	322
487.10645	325
487.62283	316
488.13919	309
488.65555	336
489.17191	319
489.68826	329
490.20459	328
490.72092	338
491.23724	316
491.75354	311
492.26984	329
492.78613	320
493.30243	323
493.8187	316
494.33496	314
494.85123	328
495.36746	314
495.8837	316
496.39993	290
496.91617	328
497.43237	335
497.94858	314
498.46478	333
498.98096	321
499.49713	309
500.01331	325
500.52945	320
501.04562	317
501.56174	322
502.07788	317
502.59399	321
503.11011	320
503.62622	316
504.1423	307
504.65839	328
505.17447	307
505.69052	304
506.20657	321
506.72263	316
507.23865	331
507.75467	328
508.27069	315
508.78668	317
509.30267	319
509.81866	311
510.33463	319
510.85059	309
511.36655	325
511.88248	308
512.39844	289
512.91437	315
513.43024	331
513.94617	333
514.46204	325
514.97791	319
515.49377	334
516.00964	319
516.52551	305
517.04132	334
517.55719	315
518.073	319
518.58881	312
519.10461	320
519.62036	311
520.13617	315
520.65192	323
521.16766	311
521.68341	318
522.1991	318
522.71484	303
523.23053	339
523.74622	329
524.2619	311
524.77759	302
525.29327	308
525.8089	319
526.32452	315
526.84015	305
527.35577	299
527.8714	313
528.38696	315
528.90259	324
529.41815	296
529.93372	332
530.44922	305
530.96478	322
531.48029	316
531.99579	313
532.51129	332
533.02679	332
533.5423	308
534.05774	322
534.57318	316
535.08862	303
535.60406	327
536.11945	316
536.63489	323
537.15027	318
537.66565	320
538.18097	319
538.69635	330
539.21167	323
539.72699	325
540.24231	321
540.75763	331
541.27289	306
541.78821	327
542.30347	312
542.81873	329
543.33392	315
543.84918	317
544.36438	313
544.87958	317
545.39478	318
545.90991	317
546.42511	312
546.94025	301
547.45538	334
547.97052	330
548.4856	317
549.00073	330
549.51581	315
550.03088	301
550.5459	335
551.06097	302
551.57599	304
552.091	311
552.60602	300
553.12097	300
553.63593	308
554.15094	300
554.66583	332
555.18079	316
555.69568	313
556.21063	311
556.72552	303
557.24036	317
557.75525	309
558.27008	310
558.78491	319
559.29974	319
559.81458	304
560.32935	308
560.84412	335
561.35889	325
561.87366	312
562.38837	317
562.90308	328
563.41779	313
563.9325	317
564.44714	337
564.96179	310
565.47644	315
565.99109	320
566.50574	303
567.02032	331
567.53491	299
568.0495	306
568.56403	319
569.07861	309
569.59314	302
570.1076	334
570.62213	312
571.1366	311
571.65106	311
572.16553	323
572.67999	306
573.1944	335
573.7088	310
574.22321	327
574.73755	334
575.25195	328
575.7663	322
576.28058	304
576.79492	328
577.3092	323
577.82349	307
578.33777	318
578.85205	323
579.36627	318
579.88049	306
580.39471	312
580.90887	307
581.42303	286
581.93719	308
582.45135	318
582.96545	305
583.47955	309
583.99365	316
584.50775	304
585.02179	308
585.53583	317
586.04987	311
586.5639	320
587.07788	316
587.59186	318
588.10583	306
588.61975	337
589.13373	299
589.64758	320
590.1615	312
590.67542	325
591.18927	312
591.70306	327
592.21692	322
592.73071	330
593.24451	326
593.7583	292
594.27209	320
594.78583	323
595.29956	324
595.81323	316
596.32697	332
596.84064	314
597.35425	311
597.86792	317
598.38153	305
598.89514	331
599.40875	307
599.9223	331
600.43585	294
600.9494	308
601.46289	310
601.97638	298
602.48987	287
603.00336	320
603.51678	324
604.03021	319
604.54364	310
605.05701	315
605.57043	328
606.08374	322
606.59711	318
607.11041	319
607.62372	323
608.13702	287
608.65027	310
609.16351	321
609.67676	319
610.19	328
610.70319	331
611.21637	315
611.72949	302
612.24268	309
612.75574	336
613.26886	291
613.78192	330
614.29504	300
614.80804	317
615.32111	328
615.83411	309
616.34711	299
616.86005	318
617.37299	344
617.88593	312
618.39886	325
618.91174	323
619.42462	313
619.9375	298
620.45032	329
620.96313	298
621.47595	325
621.98871	300
622.50146	329
623.01422	342
623.52692	339
624.03967	333
624.55231	309
625.065	322
625.57764	322
626.09027	322
626.60284	299
627.11542	301
627.62799	313
628.14056	301
628.65308	316
629.16559	315
629.6781	320
630.19055	319
630.703	316
631.21539	315
631.72784	325
632.24017	315
632.75256	336
633.26489	308
633.77722	297
634.28955	321
634.80182	321
635.31409	328
635.82635	305
636.33856	322
636.85077	315
637.36292	330
637.87512	306
638.38721	307
638.89935	309
639.41144	314
639.92352	317
640.43561	322
640.94763	316
641.45966	302
641.97162	317
642.48358	304
642.99554	312
643.50751	309
644.01941	303
644.53131	317
645.04315	325
645.55499	334
646.06683	309
646.57861	328
647.09045	316
647.60217	323
648.11395	320
648.62567	336
649.13733	308
649.64905	326
650.16064	321
650.6723	302
651.1839	316
651.6955	313
652.20709	324
652.71863	307
653.23016	321
653.74164	314
654.25311	319
654.76459	324
655.276	335
655.78741	334
656.29883	314
656.81018	294
657.32153	315
657.83289	316
658.34418	315
658.85547	335
659.3667	288
659.87793	316
660.38916	303
660.90033	319
661.4115	337
661.92267	280
662.43378	319
662.94489	310
663.45593	300
663.96698	316
664.47803	315
664.98907	331
665.50006	313
666.01099	296
666.52191	326
667.03284	319
667.54376	325
668.05463	290
668.56549	326
669.07629	324
669.5871	320
670.0979	309
670.60864	321
671.11938	321
671.63007	303
672.14075	303
672.65143	315
673.16205	330
673.67267	308
674.18329	319
674.69385	317
675.20435	324
675.7149	314
676.2254	319
676.73584	303
677.24628	324
677.75671	313
678.26715	332
678.77753	333
679.28784	330
679.79822	328
680.30847	308
680.81879	319
681.32904	311
681.83923	325
682.34949	323
682.85968	313
683.36981	320
683.87994	329
684.39008	310
684.90015	324
685.41022	314
685.92023	318
686.43024	317
686.94025	314
687.4502	331
687.96014	326
688.47003	314
688.97992	320
689.48981	309
689.99963	322
690.50946	318
691.01923	308
691.52899	310
692.03876	322
692.54846	304
693.05817	307
693.56781	315
694.07745	306
694.58704	320
695.09662	314
695.6062	312
696.11572	329
696.62524	294
697.1347	318
697.64417	309
698.15363	312
698.66302	311
699.17242	323
699.68176	305
700.1911	308
700.70044	337
701.20972	296
701.71893	296
702.22815	303
702.73737	326
703.24652	298
703.75568	317
704.26483	321
704.77393	310
705.28302	320
705.79205	319
706.30103	319
706.81006	308
707.31903	315
707.82794	303
708.33685	315
708.84576	316
709.35461	313
709.86346	307
710.37225	346
710.88104	310
711.38977	325
711.8985	313
712.40723	309
712.91589	301
713.42456	314
713.93317	321
714.44177	330
714.95032	323
715.45886	300
715.96735	304
716.47583	326
716.98431	305
717.49274	323
718.00116	319
718.50952	322
719.01788	307
719.52618	312
720.03448	319
720.54272	299
721.05096	301
721.5592	342
722.06738	314
722.57556	304
723.08368	320
723.59174	329
724.09985	338
724.60791	321
725.11591	304
725.6239	309
726.13184	322
726.63977	315
727.14771	300
727.65558	314
728.16339	315
728.67126	314
729.17902	323
729.68683	317
730.19452	310
730.70227	323
731.2099	308
731.71759	313
732.22522	312
732.73279	298
733.24036	303
733.74792	326
734.25543	312
734.76288	311
735.27032	321
735.77777	323
736.28516	305
736.79254	320
737.29987	308
737.80719	308
738.31445	303
738.82172	308
739.32892	341
739.83612	325
740.34326	322
740.8504	308
741.35748	302
741.86456	306
742.37164	307
742.87866	329
743.38562	303
743.89258	318
744.39954	307
744.90643	322
745.41327	299
745.9201	332
746.42694	300
746.93372	310
747.44049	328
747.9472	314
748.45386	308
748.96057	309
749.46716	333
749.97375	322
750.48035	321
750.98688	312
751.49341	284
751.99988	297
752.50635	315
753.01276	312
753.51917	297
754.02551	323
754.53186	315
755.03815	327
755.54443	327
756.05066	316
756.55688	301
757.06305	330
757.56921	325
758.07532	322
758.58142	286
759.08746	324
759.59351	300
760.09949	300
760.60547	313
761.11139	302
761.61725	319
762.12317	325
762.62897	300
763.13483	313
763.64056	315
764.1463	330
764.65204	309
765.15771	320
765.66339	331
766.16901	309
766.67462	321
767.18018	311
767.68567	317
768.19116	295
768.69666	304
769.20209	305
769.70746	305
770.21283	332
770.7182	326
771.22351	305
771.72876	315
772.23401	297
772.73926	335
773.24445	313
773.74957	318
774.2547	313
774.75977	331
775.26483	329
775.76984	323
776.27484	311
776.77979	335
777.28473	320
777.78961	325
778.29449	318
778.79932	324
779.30408	318
779.80884	318
780.3136	319
780.8183	344
781.32294	290
781.82758	331
782.33215	300
782.83673	342
783.34131	320
783.84576	319
784.35028	324
784.85468	314
785.35907	299
785.86346	324
786.3678	297
786.87213	326
787.3764	301
787.88062	322
788.38483	319
788.88898	330
789.39313	341
789.89722	325
790.40131	336
790.90533	318
791.40936	295
791.91333	316
792.4173	316
792.9212	302
793.42505	347
793.92889	290
794.43268	308
794.93646	321
795.44019	331
795.94391	310
796.44757	318
796.95123	324
797.45483	318
797.95837	314
798.46191	314
798.96539	318
799.46887	330
799.97235	366
800.47571	1815
800.97906	324
801.48242	306
801.98572	323
802.48895	310
802.99219	285
803.49536	304
803.99854	326
804.50165	337
805.00476	329
805.50781	324
806.01086	311
806.51379	324
807.01678	307
807.51971	316
808.02258	313
808.52539	329
809.02826	333
809.53101	326
810.03375	323
810.53644	305
811.03912	324
811.54175	312
812.04437	320
812.54694	323
813.04944	316
813.55194	316
814.05444	324
814.55682	318
815.05927	297
815.56158	293
816.0639	300
816.56622	308
817.06842	319
817.57068	314
818.07281	297
818.57495	331
819.07709	326
819.57916	309
820.08118	309
820.58319	289
821.08514	323
821.5871	322
822.08899	315
822.59082	332
823.09265	328
823.59442	311
824.09619	310
824.5979	293
825.09955	311
825.6012	337
826.10278	321
826.60437	333
827.1059	300
827.60736	311
828.10883	321
828.61023	316
829.11163	330
829.61298	324
830.11432	316
830.61554	310
831.11682	320
831.61798	328
832.11914	318
832.6203	314
833.1214	304
833.62244	304
834.12347	329
834.62445	285
835.12537	313
835.62628	316
836.12714	325
836.62799	304
837.12878	307
837.62952	339
838.13025	314
838.63092	291
839.13153	335
839.63214	324
840.13275	317
840.63324	303
841.13373	317
841.63422	314
842.13464	322
842.63501	308
843.13538	315
843.63568	313
844.13593	286
844.63617	301
845.13635	319
845.63647	304
846.1366	320
846.63672	312
847.13672	310
847.63672	320
848.13672	325
848.6366	303
849.13647	308
849.63635	330
850.13617	306
850.63593	317
851.13568	312
851.63538	323
852.13501	317
852.63464	318
853.13422	318
853.63373	324
854.13324	312
854.63275	319
855.13214	312
855.63153	349
856.13086	330
856.63019	319
857.12946	332
857.62866	307
858.12787	330
858.62701	316
859.12616	283
859.62524	307
860.12427	337
860.62323	311
861.12219	315
861.62109	316
862.12	340
862.61884	326
863.11761	328
863.61639	306
864.11511	302
864.61377	323
865.11243	307
865.61102	302
866.10962	332
866.60809	322
867.10663	317
867.60504	336
868.10345	321
868.60181	310
869.10016	332
869.59839	308
870.09668	319
870.59485	324
871.09302	322
871.59113	326
872.08923	324
872.58728	303
873.08527	309
873.58325	303
874.08118	321
874.57904	320
875.0769	322
875.57465	323
876.07245	317
876.57013	337
877.06781	322
877.56549	329
878.06305	336
878.56061	315
879.05817	327
879.5556	304
880.05304	334
880.55042	328
881.04779	335
881.5451	316
882.04236	293
882.53961	314
883.0368	312
883.53394	321
884.03107	311
884.52808	336
885.02515	328
