Date and Time:                Thu Oct 30 08:25:44.618 2025
Software Version:             4.30.30000.0
Unstabilized Temperature (C): -88.982
Model:                        DU971P_UVB
Data Type:                    Counts
Acquisition Mode:             Single Scan
Trigger Mode:                 Internal
Exposure Time (secs):         30
Readout Mode:                 Full Vertical Binning
Horizontal binning:           2
Extended Dynamic Range:       off
Horizontally flipped:         false
Vertical Shift Speed (usecs): 9.68
Pixel Readout Rate (MHz):     3
Baseline Clamp:               ON
Clock Amplitude:              Normal
Output Amplifier:             Conventional
Serial Number:                20367
Pre-Amplifier Gain:           4x
Spurious Noise Filter Mode:   No Filter
Photon counted:               false
Data Averaging Filter Mode:   No Filter
SR193i:
Serial Number:                SR-2646
Wavelength (nm):              690
Grating Groove Density (l/mm):300
Grating Blaze:                500nm
Input Side Slit Width (um):   1000



478.32681	261
478.84332	294
479.35983	296
479.87631	328
480.39282	323
480.9093	303
481.42575	317
481.94223	315
482.45868	322
482.97513	342
483.49158	322
484.00803	326
484.52444	333
485.04086	315
485.55728	332
486.07367	298
486.59006	326
487.10645	335
487.62283	326
488.13919	312
488.65555	306
489.17191	304
489.68826	306
490.20459	306
490.72092	314
491.23724	301
491.75354	335
492.26984	325
492.78613	322
493.30243	310
493.8187	320
494.33496	303
494.85123	314
495.36746	326
495.8837	318
496.39993	310
496.91617	333
497.43237	323
497.94858	329
498.46478	306
498.98096	317
499.49713	292
500.01331	335
500.52945	329
501.04562	312
501.56174	327
502.07788	324
502.59399	332
503.11011	312
503.62622	320
504.1423	311
504.65839	306
505.17447	308
505.69052	325
506.20657	309
506.72263	326
507.23865	307
507.75467	310
508.27069	321
508.78668	303
509.30267	313
509.81866	323
510.33463	315
510.85059	317
511.36655	310
511.88248	316
512.39844	327
512.91437	326
513.43024	311
513.94617	342
514.46204	313
514.97791	323
515.49377	330
516.00964	307
516.52551	330
517.04132	327
517.55719	316
518.073	331
518.58881	296
519.10461	324
519.62036	296
520.13617	316
520.65192	321
521.16766	312
521.68341	314
522.1991	334
522.71484	316
523.23053	321
523.74622	311
524.2619	321
524.77759	303
525.29327	319
525.8089	337
526.32452	297
526.84015	305
527.35577	338
527.8714	332
528.38696	336
528.90259	326
529.41815	309
529.93372	315
530.44922	322
530.96478	310
531.48029	327
531.99579	323
532.51129	324
533.02679	330
533.5423	328
534.05774	307
534.57318	300
535.08862	317
535.60406	315
536.11945	312
536.63489	319
537.15027	321
537.66565	292
538.18097	326
538.69635	307
539.21167	324
539.72699	310
540.24231	312
540.75763	318
541.27289	322
541.78821	319
542.30347	314
542.81873	329
543.33392	322
543.84918	290
544.36438	345
544.87958	306
545.39478	323
545.90991	334
546.42511	327
546.94025	309
547.45538	326
547.97052	310
548.4856	303
549.00073	338
549.51581	324
550.03088	309
550.5459	324
551.06097	296
551.57599	327
552.091	306
552.60602	313
553.12097	318
553.63593	327
554.15094	305
554.66583	307
555.18079	311
555.69568	307
556.21063	315
556.72552	330
557.24036	309
557.75525	325
558.27008	340
558.78491	301
559.29974	313
559.81458	307
560.32935	343
560.84412	334
561.35889	323
561.87366	310
562.38837	308
562.90308	314
563.41779	353
563.9325	329
564.44714	318
564.96179	315
565.47644	320
565.99109	336
566.50574	337
567.02032	330
567.53491	304
568.0495	309
568.56403	315
569.07861	299
569.59314	313
570.1076	305
570.62213	298
571.1366	327
571.65106	320
572.16553	311
572.67999	346
573.1944	327
573.7088	312
574.22321	308
574.73755	317
575.25195	329
575.7663	321
576.28058	319
576.79492	322
577.3092	310
577.82349	315
578.33777	320
578.85205	335
579.36627	304
579.88049	294
580.39471	306
580.90887	321
581.42303	327
581.93719	292
582.45135	327
582.96545	322
583.47955	308
583.99365	325
584.50775	315
585.02179	309
585.53583	301
586.04987	318
586.5639	316
587.07788	310
587.59186	345
588.10583	318
588.61975	328
589.13373	312
589.64758	323
590.1615	315
590.67542	312
591.18927	294
591.70306	306
592.21692	322
592.73071	305
593.24451	325
593.7583	313
594.27209	318
594.78583	307
595.29956	305
595.81323	311
596.32697	322
596.84064	314
597.35425	313
597.86792	323
598.38153	330
598.89514	325
599.40875	325
599.9223	318
600.43585	335
600.9494	319
601.46289	314
601.97638	307
602.48987	325
603.00336	320
603.51678	318
604.03021	292
604.54364	324
605.05701	293
605.57043	318
606.08374	317
606.59711	311
607.11041	329
607.62372	315
608.13702	311
608.65027	316
609.16351	338
609.67676	329
610.19	319
610.70319	318
611.21637	314
611.72949	312
612.24268	337
612.75574	322
613.26886	310
613.78192	323
614.29504	326
614.80804	338
615.32111	315
615.83411	333
616.34711	310
616.86005	316
617.37299	336
617.88593	318
618.39886	299
618.91174	320
619.42462	317
619.9375	291
620.45032	322
620.96313	309
621.47595	325
621.98871	311
622.50146	317
623.01422	323
623.52692	300
624.03967	320
624.55231	289
625.065	324
625.57764	313
626.09027	317
626.60284	284
627.11542	329
627.62799	308
628.14056	339
628.65308	312
629.16559	339
629.6781	332
630.19055	296
630.703	317
631.21539	325
631.72784	320
632.24017	311
632.75256	323
633.26489	294
633.77722	329
634.28955	310
634.80182	316
635.31409	304
635.82635	321
636.33856	330
636.85077	303
637.36292	312
637.87512	301
638.38721	311
638.89935	319
639.41144	298
639.92352	302
640.43561	318
640.94763	322
641.45966	323
641.97162	293
642.48358	322
642.99554	313
643.50751	319
644.01941	306
644.53131	304
645.04315	305
645.55499	317
646.06683	313
646.57861	313
647.09045	306
647.60217	324
648.11395	312
648.62567	310
649.13733	307
649.64905	321
650.16064	320
650.6723	314
651.1839	328
651.6955	319
652.20709	303
652.71863	308
653.23016	320
653.74164	312
654.25311	298
654.76459	321
655.276	327
655.78741	290
656.29883	303
656.81018	327
657.32153	320
657.83289	325
658.34418	306
658.85547	312
659.3667	325
659.87793	287
660.38916	306
660.90033	315
661.4115	316
661.92267	316
662.43378	304
662.94489	305
663.45593	321
663.96698	321
664.47803	323
664.98907	308
665.50006	323
666.01099	298
666.52191	306
667.03284	322
667.54376	301
668.05463	308
668.56549	311
669.07629	314
669.5871	307
670.0979	331
670.60864	301
671.11938	314
671.63007	323
672.14075	319
672.65143	319
673.16205	327
673.67267	324
674.18329	320
674.69385	334
675.20435	315
675.7149	321
676.2254	320
676.73584	308
677.24628	319
677.75671	322
678.26715	325
678.77753	312
679.28784	312
679.79822	293
680.30847	304
680.81879	322
681.32904	318
681.83923	292
682.34949	321
682.85968	308
683.36981	338
683.87994	311
684.39008	320
684.90015	296
685.41022	312
685.92023	309
686.43024	313
686.94025	308
687.4502	327
687.96014	315
688.47003	329
688.97992	307
689.48981	304
689.99963	318
690.50946	321
691.01923	305
691.52899	311
692.03876	312
692.54846	336
693.05817	325
693.56781	322
694.07745	308
694.58704	313
695.09662	293
695.6062	315
696.11572	313
696.62524	327
697.1347	309
697.64417	307
698.15363	308
698.66302	311
699.17242	307
699.68176	308
700.1911	303
700.70044	302
701.20972	315
701.71893	294
702.22815	323
702.73737	310
703.24652	329
703.75568	297
704.26483	319
704.77393	304
705.28302	311
705.79205	344
706.30103	296
706.81006	302
707.31903	316
707.82794	317
708.33685	309
708.84576	288
709.35461	315
709.86346	302
710.37225	315
710.88104	310
711.38977	325
711.8985	319
712.40723	292
712.91589	332
713.42456	315
713.93317	304
714.44177	321
714.95032	323
715.45886	319
715.96735	306
716.47583	308
716.98431	312
717.49274	314
718.00116	308
718.50952	312
719.01788	312
719.52618	315
720.03448	324
720.54272	298
721.05096	315
721.5592	306
722.06738	308
722.57556	324
723.08368	311
723.59174	300
724.09985	325
724.60791	306
725.11591	315
725.6239	305
726.13184	306
726.63977	293
727.14771	306
727.65558	300
728.16339	296
728.67126	321
729.17902	305
729.68683	310
730.19452	301
730.70227	313
731.2099	306
731.71759	310
732.22522	319
732.73279	336
733.24036	330
733.74792	325
734.25543	318
734.76288	313
735.27032	319
735.77777	315
736.28516	304
736.79254	317
737.29987	315
737.80719	299
738.31445	304
738.82172	293
739.32892	328
739.83612	295
740.34326	329
740.8504	304
741.35748	324
741.86456	316
742.37164	294
742.87866	297
743.38562	316
743.89258	309
744.39954	325
744.90643	306
745.41327	296
745.9201	317
746.42694	336
746.93372	326
747.44049	326
747.9472	298
748.45386	304
748.96057	303
749.46716	317
749.97375	331
750.48035	326
750.98688	323
751.49341	312
751.99988	320
752.50635	313
753.01276	310
753.51917	317
754.02551	564
754.53186	2510
755.03815	293
755.54443	299
756.05066	327
756.55688	311
757.06305	340
757.56921	311
758.07532	331
758.58142	305
759.08746	317
759.59351	296
760.09949	310
760.60547	312
761.11139	311
761.61725	328
762.12317	326
762.62897	327
763.13483	310
763.64056	298
764.1463	315
764.65204	315
765.15771	308
765.66339	329
766.16901	314
766.67462	302
767.18018	324
767.68567	314
768.19116	332
768.69666	310
769.20209	301
769.70746	317
770.21283	298
770.7182	307
771.22351	316
771.72876	296
772.23401	316
772.73926	319
773.24445	315
773.74957	299
774.2547	304
774.75977	317
775.26483	299
775.76984	321
776.27484	333
776.77979	310
777.28473	311
777.78961	318
778.29449	325
778.79932	308
779.30408	308
779.80884	314
780.3136	323
780.8183	312
781.32294	306
781.82758	324
782.33215	319
782.83673	318
783.34131	289
783.84576	311
784.35028	320
784.85468	309
785.35907	303
785.86346	313
786.3678	329
786.87213	330
787.3764	309
787.88062	312
788.38483	306
788.88898	338
789.39313	325
789.89722	326
790.40131	305
790.90533	333
791.40936	331
791.91333	301
792.4173	320
792.9212	327
793.42505	313
793.92889	314
794.43268	308
794.93646	310
795.44019	301
795.94391	328
796.44757	334
796.95123	315
797.45483	300
797.95837	316
798.46191	311
798.96539	324
799.46887	321
799.97235	308
800.47571	312
800.97906	330
801.48242	335
801.98572	323
802.48895	318
802.99219	323
803.49536	313
803.99854	311
804.50165	310
805.00476	325
805.50781	341
806.01086	323
806.51379	314
807.01678	317
807.51971	319
808.02258	318
808.52539	333
809.02826	301
809.53101	299
810.03375	312
810.53644	324
811.03912	316
811.54175	313
812.04437	279
812.54694	297
813.04944	294
813.55194	318
814.05444	313
814.55682	336
815.05927	319
815.56158	331
816.0639	309
816.56622	310
817.06842	314
817.57068	304
818.07281	301
818.57495	315
819.07709	301
819.57916	315
820.08118	305
820.58319	308
821.08514	318
821.5871	297
822.08899	307
822.59082	285
823.09265	317
823.59442	291
824.09619	311
824.5979	313
825.09955	348
825.6012	314
826.10278	305
826.60437	315
827.1059	307
827.60736	305
828.10883	316
828.61023	308
829.11163	326
829.61298	297
830.11432	324
830.61554	307
831.11682	328
831.61798	318
832.11914	321
832.6203	320
833.1214	308
833.62244	311
834.12347	317
834.62445	325
835.12537	337
835.62628	295
836.12714	324
836.62799	327
837.12878	327
837.62952	323
838.13025	301
838.63092	299
839.13153	320
839.63214	322
840.13275	312
840.63324	288
841.13373	328
841.63422	322
842.13464	316
842.63501	310
843.13538	336
843.63568	299
844.13593	337
844.63617	311
845.13635	306
845.63647	314
846.1366	321
846.63672	337
847.13672	314
847.63672	304
848.13672	321
848.6366	300
849.13647	314
849.63635	314
850.13617	326
850.63593	313
851.13568	335
851.63538	319
852.13501	308
852.63464	284
853.13422	315
853.63373	325
854.13324	296
854.63275	324
855.13214	313
855.63153	312
856.13086	311
856.63019	305
857.12946	343
857.62866	302
858.12787	341
858.62701	319
859.12616	318
859.62524	307
860.12427	308
860.62323	320
861.12219	311
861.62109	304
862.12	312
862.61884	318
863.11761	323
863.61639	313
864.11511	324
864.61377	337
865.11243	313
865.61102	336
866.10962	311
866.60809	322
867.10663	317
867.60504	305
868.10345	324
868.60181	327
869.10016	310
869.59839	318
870.09668	313
870.59485	302
871.09302	324
871.59113	333
872.08923	308
872.58728	326
873.08527	305
873.58325	326
874.08118	333
874.57904	325
875.0769	327
875.57465	316
876.07245	324
876.57013	331
877.06781	306
877.56549	306
878.06305	302
878.56061	298
879.05817	307
879.5556	306
880.05304	302
880.55042	324
881.04779	314
881.5451	305
882.04236	303
882.53961	320
883.0368	309
883.53394	307
884.03107	322
884.52808	311
885.02515	311
